##TITLE=No Description
##DATA TYPE=INFRARED SPECTRUM
##XUNITS=1/CM
##YUNITS=%T
399.460154  	34.301969 
400.897061  	33.974763 
402.333968  	34.607277 
403.770875  	33.287206 
405.207782  	33.454950 
406.644689  	34.307884 
408.081596  	33.706044 
409.518503  	33.782576 
410.955410  	33.582111 
412.392317  	33.544209 
413.829224  	34.232404 
415.266131  	33.811300 
416.703038  	33.962495 
418.139945  	34.713887 
419.576852  	34.276857 
421.013759  	34.955595 
422.450666  	34.706596 
423.887574  	34.066544 
425.324481  	34.052848 
426.761388  	33.689405 
428.198295  	34.187079 
429.635202  	34.685796 
431.072109  	33.808248 
432.509016  	33.490859 
433.945923  	33.536119 
435.382830  	33.644962 
436.819737  	34.475780 
438.256644  	34.572880 
439.693551  	34.301134 
441.130458  	34.278202 
442.567365  	34.175684 
444.004272  	34.318403 
445.441179  	33.910300 
446.878086  	33.992469 
448.314993  	34.722388 
449.751900  	34.342009 
451.188807  	34.187642 
452.625714  	34.641263 
454.062621  	34.278784 
455.499528  	34.311165 
456.936435  	34.726904 
458.373342  	34.997351 
459.810249  	35.146648 
461.247156  	34.637134 
462.684063  	34.512118 
464.120970  	34.933974 
465.557877  	34.857282 
466.994784  	34.968463 
468.431691  	34.928077 
469.868598  	34.561983 
471.305505  	34.672473 
472.742413  	34.758607 
474.179320  	34.957538 
475.616227  	35.043056 
477.053134  	34.719713 
478.490041  	35.003480 
479.926948  	35.361230 
481.363855  	35.152405 
482.800762  	35.113498 
484.237669  	34.957392 
485.674576  	34.805759 
487.111483  	34.914814 
488.548390  	34.976604 
489.985297  	35.270088 
491.422204  	35.386641 
492.859111  	35.193307 
494.296018  	35.265118 
495.732925  	35.177804 
497.169832  	35.153907 
498.606739  	35.490894 
500.043646  	35.560101 
501.480553  	35.607367 
502.917460  	35.729301 
504.354367  	35.739821 
505.791274  	35.898626 
507.228181  	35.817282 
508.665088  	35.637609 
510.101995  	35.709765 
511.538902  	35.645141 
512.975809  	35.599875 
514.412716  	35.636915 
515.849623  	35.591050 
517.286530  	35.695353 
518.723437  	35.745587 
520.160344  	35.818605 
521.597251  	36.134197 
523.034159  	36.290187 
524.471066  	36.231126 
525.907973  	36.147770 
527.344880  	36.192468 
528.781787  	36.329541 
530.218694  	36.272780 
531.655601  	36.206945 
533.092508  	36.335709 
534.529415  	36.501055 
535.966322  	36.698372 
537.403229  	36.780523 
538.840136  	36.757906 
540.277043  	36.775364 
541.713950  	36.685562 
543.150857  	36.689775 
544.587764  	36.839269 
546.024671  	36.876196 
547.461578  	36.966616 
548.898485  	37.100141 
550.335392  	37.236583 
551.772299  	37.445441 
553.209206  	37.431342 
554.646113  	37.298058 
556.083020  	37.340745 
557.519927  	37.570135 
558.956834  	37.890021 
560.393741  	37.916591 
561.830648  	37.797063 
563.267555  	37.962990 
564.704462  	38.024120 
566.141369  	37.913764 
567.578276  	37.985705 
569.015183  	38.146808 
570.452090  	38.340095 
571.888997  	38.442987 
573.325905  	38.447240 
574.762812  	38.592403 
576.199719  	38.695969 
577.636626  	38.702650 
579.073533  	38.817681 
580.510440  	38.938117 
581.947347  	39.029555 
583.384254  	39.079438 
584.821161  	39.119674 
586.258068  	39.288698 
587.694975  	39.415556 
589.131882  	39.433773 
590.568789  	39.485160 
592.005696  	39.601353 
593.442603  	39.752193 
594.879510  	39.804043 
596.316417  	39.897484 
597.753324  	40.144281 
599.190231  	40.227450 
600.627138  	40.278772 
602.064045  	40.497717 
603.500952  	40.628354 
604.937859  	40.763726 
606.374766  	40.898268 
607.811673  	40.905966 
609.248580  	40.998277 
610.685487  	41.120358 
612.122394  	41.236843 
613.559301  	41.423109 
614.996208  	41.551880 
616.433115  	41.622653 
617.870022  	41.724843 
619.306929  	41.834293 
620.743836  	41.977353 
622.180744  	42.089330 
623.617651  	42.194498 
625.054558  	42.348121 
626.491465  	42.454610 
627.928372  	42.529230 
629.365279  	42.624221 
630.802186  	42.740387 
632.239093  	42.908304 
633.676000  	43.071272 
635.112907  	43.226617 
636.549814  	43.378994 
637.986721  	43.500374 
639.423628  	43.601311 
640.860535  	43.773283 
642.297442  	43.905233 
643.734349  	44.080152 
645.171256  	44.250492 
646.608163  	44.346380 
648.045070  	44.537265 
649.481977  	44.679055 
650.918884  	44.785806 
652.355791  	44.985320 
653.792698  	45.154964 
655.229605  	45.298910 
656.666512  	45.441152 
658.103419  	45.565776 
659.540326  	45.745852 
660.977233  	45.863541 
662.414140  	45.993491 
663.851047  	46.232207 
665.287954  	46.351977 
666.724861  	46.486836 
668.161768  	46.706353 
669.598675  	46.891811 
671.035582  	47.038419 
672.472490  	47.236975 
673.909397  	47.446957 
675.346304  	47.651270 
676.783211  	47.811579 
678.220118  	47.876847 
679.657025  	47.957562 
681.093932  	48.103989 
682.530839  	48.324069 
683.967746  	48.552402 
685.404653  	48.742291 
686.841560  	48.952379 
688.278467  	49.159243 
689.715374  	49.300380 
691.152281  	49.413221 
692.589188  	49.563043 
694.026095  	49.766087 
695.463002  	49.971963 
696.899909  	50.180350 
698.336816  	50.398294 
699.773723  	50.594122 
701.210630  	50.781862 
702.647537  	50.955463 
704.084444  	51.141651 
705.521351  	51.374965 
706.958258  	51.550489 
708.395165  	51.684195 
709.832072  	51.894227 
711.268979  	52.115649 
712.705886  	52.336685 
714.142793  	52.560244 
715.579700  	52.763856 
717.016607  	52.961869 
718.453514  	53.103562 
719.890421  	53.246735 
721.327328  	53.491353 
722.764236  	53.760671 
724.201143  	53.986338 
725.638050  	54.160247 
727.074957  	54.291196 
728.511864  	54.467724 
729.948771  	54.679526 
731.385678  	54.890507 
732.822585  	55.130995 
734.259492  	55.370180 
735.696399  	55.616903 
737.133306  	55.861434 
738.570213  	56.024079 
740.007120  	56.210008 
741.444027  	56.472236 
742.880934  	56.706473 
744.317841  	56.886262 
745.754748  	57.054511 
747.191655  	57.277126 
748.628562  	57.528841 
750.065469  	57.744590 
751.502376  	57.980281 
752.939283  	58.196638 
754.376190  	58.369868 
755.813097  	58.629331 
757.250004  	58.887602 
758.686911  	59.047787 
760.123818  	59.271180 
761.560725  	59.547331 
762.997632  	59.741922 
764.434539  	59.929327 
765.871446  	60.172929 
767.308353  	60.415990 
768.745260  	60.655367 
770.182167  	60.885756 
771.619075  	61.069005 
773.055982  	61.270103 
774.492889  	61.508893 
775.929796  	61.704657 
777.366703  	61.934092 
778.803610  	62.242261 
780.240517  	62.504311 
781.677424  	62.731473 
783.114331  	62.943145 
784.551238  	63.112010 
785.988145  	63.351237 
787.425052  	63.623814 
788.861959  	63.825257 
790.298866  	64.047438 
791.735773  	64.280917 
793.172680  	64.492967 
794.609587  	64.768951 
796.046494  	65.047989 
797.483401  	65.263492 
798.920308  	65.479554 
800.357215  	65.719915 
801.794122  	65.971709 
803.231029  	66.209831 
804.667936  	66.435844 
806.104843  	66.685467 
807.541750  	66.939697 
808.978657  	67.180080 
810.415564  	67.399843 
811.852471  	67.606905 
813.289378  	67.863758 
814.726285  	68.132361 
816.163192  	68.337505 
817.600099  	68.550306 
819.037006  	68.813604 
820.473913  	69.087224 
821.910821  	69.364154 
823.347728  	69.615198 
824.784635  	69.818268 
826.221542  	70.031771 
827.658449  	70.299931 
829.095356  	70.580652 
830.532263  	70.807065 
831.969170  	71.012128 
833.406077  	71.270046 
834.842984  	71.515708 
836.279891  	71.698131 
837.716798  	71.931776 
839.153705  	72.240367 
840.590612  	72.505658 
842.027519  	72.717980 
843.464426  	72.953496 
844.901333  	73.222317 
846.338240  	73.481501 
847.775147  	73.698083 
849.212054  	73.898971 
850.648961  	74.154997 
852.085868  	74.457691 
853.522775  	74.692798 
854.959682  	74.863601 
856.396589  	75.105272 
857.833496  	75.370354 
859.270403  	75.560848 
860.707310  	75.786254 
862.144217  	76.065919 
863.581124  	76.297854 
865.018031  	76.509208 
866.454938  	76.723642 
867.891845  	76.938462 
869.328752  	77.178312 
870.765660  	77.406551 
872.202567  	77.611355 
873.639474  	77.823172 
875.076381  	78.052597 
876.513288  	78.274642 
877.950195  	78.458543 
879.387102  	78.692106 
880.824009  	78.971477 
882.260916  	79.164121 
883.697823  	79.358370 
885.134730  	79.592614 
886.571637  	79.763007 
888.008544  	79.956816 
889.445451  	80.165789 
890.882358  	80.327370 
892.319265  	80.541973 
893.756172  	80.753176 
895.193079  	80.928335 
896.629986  	81.145245 
898.066893  	81.324854 
899.503800  	81.466715 
900.940707  	81.620383 
902.377614  	81.767094 
903.814521  	81.957152 
905.251428  	82.147045 
906.688335  	82.302595 
908.125242  	82.480269 
909.562149  	82.635798 
910.999056  	82.798822 
912.435963  	82.998600 
913.872870  	83.155225 
915.309777  	83.296147 
916.746684  	83.452016 
918.183591  	83.650634 
919.620498  	83.878532 
921.057406  	83.989851 
922.494313  	84.070590 
923.931220  	84.250884 
925.368127  	84.412692 
926.805034  	84.546012 
928.241941  	84.683496 
929.678848  	84.811487 
931.115755  	84.971776 
932.552662  	85.107112 
933.989569  	85.209769 
935.426476  	85.300884 
936.863383  	85.352533 
938.300290  	85.490668 
939.737197  	85.682207 
941.174104  	85.764770 
942.611011  	85.829990 
944.047918  	85.931569 
945.484825  	86.049189 
946.921732  	86.181329 
948.358639  	86.262620 
949.795546  	86.368323 
951.232453  	86.495414 
952.669360  	86.545660 
954.106267  	86.650064 
955.543174  	86.796809 
956.980081  	86.874240 
958.416988  	86.969116 
959.853895  	87.059298 
961.290802  	87.122189 
962.727709  	87.196886 
964.164616  	87.225591 
965.601523  	87.294009 
967.038430  	87.448656 
968.475337  	87.555724 
969.912244  	87.618224 
971.349152  	87.672026 
972.786059  	87.705052 
974.222966  	87.763999 
975.659873  	87.870770 
977.096780  	87.990049 
978.533687  	88.055895 
979.970594  	88.100030 
981.407501  	88.181890 
982.844408  	88.215669 
984.281315  	88.231555 
985.718222  	88.325104 
987.155129  	88.412558 
988.592036  	88.474916 
990.028943  	88.532735 
991.465850  	88.553442 
992.902757  	88.598735 
994.339664  	88.662540 
995.776571  	88.692505 
997.213478  	88.735990 
998.650385  	88.782359 
1000.087292  	88.810202 
1001.524199  	88.860439 
1002.961106  	88.917653 
1004.398013  	88.948005 
1005.834920  	88.973280 
1007.271827  	89.026801 
1008.708734  	89.080091 
1010.145641  	89.101726 
1011.582548  	89.124606 
1013.019455  	89.160107 
1014.456362  	89.213705 
1015.893269  	89.278131 
1017.330176  	89.308376 
1018.767083  	89.345423 
1020.203991  	89.397004 
1021.640898  	89.404477 
1023.077805  	89.423664 
1024.514712  	89.465697 
1025.951619  	89.484730 
1027.388526  	89.511035 
1028.825433  	89.533483 
1030.262340  	89.554343 
1031.699247  	89.581212 
1033.136154  	89.568983 
1034.573061  	89.572008 
1036.009968  	89.615639 
1037.446875  	89.639473 
1038.883782  	89.655292 
1040.320689  	89.666856 
1041.757596  	89.676430 
1043.194503  	89.695548 
1044.631410  	89.709033 
1046.068317  	89.749761 
1047.505224  	89.789330 
1048.942131  	89.795106 
1050.379038  	89.822437 
1051.815945  	89.835011 
1053.252852  	89.837044 
1054.689759  	89.894337 
1056.126666  	89.947175 
1057.563573  	89.969588 
1059.000480  	89.969905 
1060.437387  	89.964881 
1061.874294  	90.009180 
1063.311201  	90.026875 
1064.748108  	89.997628 
1066.185015  	90.002897 
1067.621922  	90.022370 
1069.058829  	90.083085 
1070.495737  	90.151541 
1071.932644  	90.124820 
1073.369551  	90.089832 
1074.806458  	90.091714 
1076.243365  	90.114255 
1077.680272  	90.161254 
1079.117179  	90.151921 
1080.554086  	90.146885 
1081.990993  	90.185235 
1083.427900  	90.168816 
1084.864807  	90.179843 
1086.301714  	90.206339 
1087.738621  	90.152149 
1089.175528  	90.145258 
1090.612435  	90.189758 
1092.049342  	90.194995 
1093.486249  	90.195258 
1094.923156  	90.192588 
1096.360063  	90.204672 
1097.796970  	90.225567 
1099.233877  	90.234270 
1100.670784  	90.273634 
1102.107691  	90.283271 
1103.544598  	90.251454 
1104.981505  	90.263435 
1106.418412  	90.298362 
1107.855319  	90.344554 
1109.292226  	90.363932 
1110.729133  	90.322145 
1112.166040  	90.316154 
1113.602947  	90.336430 
1115.039854  	90.337881 
1116.476761  	90.358107 
1117.913668  	90.371492 
1119.350575  	90.391773 
1120.787483  	90.413812 
1122.224390  	90.399996 
1123.661297  	90.415485 
1125.098204  	90.430841 
1126.535111  	90.410120 
1127.972018  	90.421517 
1129.408925  	90.436057 
1130.845832  	90.438778 
1132.282739  	90.433062 
1133.719646  	90.400677 
1135.156553  	90.413188 
1136.593460  	90.439646 
1138.030367  	90.425134 
1139.467274  	90.427429 
1140.904181  	90.416153 
1142.341088  	90.396241 
1143.777995  	90.403523 
1145.214902  	90.391411 
1146.651809  	90.403309 
1148.088716  	90.429169 
1149.525623  	90.402548 
1150.962530  	90.379113 
1152.399437  	90.361210 
1153.836344  	90.351204 
1155.273251  	90.372965 
1156.710158  	90.364525 
1158.147065  	90.363092 
1159.583972  	90.392892 
1161.020879  	90.390779 
1162.457786  	90.392108 
1163.894693  	90.391086 
1165.331600  	90.368307 
1166.768507  	90.362984 
1168.205414  	90.337717 
1169.642322  	90.313790 
1171.079229  	90.332375 
1172.516136  	90.342262 
1173.953043  	90.346905 
1175.389950  	90.343035 
1176.826857  	90.332734 
1178.263764  	90.353166 
1179.700671  	90.348291 
1181.137578  	90.326824 
1182.574485  	90.339754 
1184.011392  	90.335333 
1185.448299  	90.331700 
1186.885206  	90.345750 
1188.322113  	90.326654 
1189.759020  	90.305733 
1191.195927  	90.297808 
1192.632834  	90.286062 
1194.069741  	90.292051 
1195.506648  	90.302506 
1196.943555  	90.298709 
1198.380462  	90.286029 
1199.817369  	90.286959 
1201.254276  	90.303477 
1202.691183  	90.284157 
1204.128090  	90.254559 
1205.564997  	90.262951 
1207.001904  	90.261182 
1208.438811  	90.247098 
1209.875718  	90.250605 
1211.312625  	90.251465 
1212.749532  	90.251046 
1214.186439  	90.257058 
1215.623346  	90.266999 
1217.060253  	90.269424 
1218.497160  	90.254041 
1219.934068  	90.248949 
1221.370975  	90.248709 
1222.807882  	90.232905 
1224.244789  	90.224247 
1225.681696  	90.225871 
1227.118603  	90.234543 
1228.555510  	90.242155 
1229.992417  	90.238175 
1231.429324  	90.242916 
1232.866231  	90.239134 
1234.303138  	90.222978 
1235.740045  	90.220260 
1237.176952  	90.202907 
1238.613859  	90.187411 
1240.050766  	90.196104 
1241.487673  	90.187899 
1242.924580  	90.172874 
1244.361487  	90.157844 
1245.798394  	90.141697 
1247.235301  	90.149195 
1248.672208  	90.145676 
1250.109115  	90.132661 
1251.546022  	90.132237 
1252.982929  	90.112200 
1254.419836  	90.098546 
1255.856743  	90.096925 
1257.293650  	90.086681 
1258.730557  	90.095230 
1260.167464  	90.090088 
1261.604371  	90.075327 
1263.041278  	90.089363 
1264.478185  	90.082172 
1265.915092  	90.065736 
1267.351999  	90.061301 
1268.788907  	90.046814 
1270.225814  	90.053687 
1271.662721  	90.049967 
1273.099628  	90.024787 
1274.536535  	90.028468 
1275.973442  	90.014757 
1277.410349  	89.991134 
1278.847256  	89.995712 
1280.284163  	89.996083 
1281.721070  	90.016265 
1283.157977  	90.039085 
1284.594884  	90.035822 
1286.031791  	90.054608 
1287.468698  	90.069067 
1288.905605  	90.066952 
1290.342512  	90.068601 
1291.779419  	90.052206 
1293.216326  	90.059418 
1294.653233  	90.075860 
1296.090140  	90.058904 
1297.527047  	90.065641 
1298.963954  	90.085188 
1300.400861  	90.100262 
1301.837768  	90.105201 
1303.274675  	90.130385 
1304.711582  	90.130900 
1306.148489  	90.146358 
1307.585396  	90.154483 
1309.022303  	90.182757 
1310.459210  	90.192843 
1311.896117  	90.178145 
1313.333024  	90.187320 
1314.769931  	90.178477 
1316.206838  	90.163902 
1317.643745  	90.171568 
1319.080653  	90.162752 
1320.517560  	90.166038 
1321.954467  	90.164927 
1323.391374  	90.168672 
1324.828281  	90.191137 
1326.265188  	90.186624 
1327.702095  	90.157287 
1329.139002  	90.148348 
1330.575909  	90.124141 
1332.012816  	90.129553 
1333.449723  	90.132423 
1334.886630  	90.103747 
1336.323537  	90.128792 
1337.760444  	90.135644 
1339.197351  	90.062444 
1340.634258  	90.009833 
1342.071165  	90.004519 
1343.508072  	90.040446 
1344.944979  	90.075583 
1346.381886  	90.052778 
1347.818793  	90.034512 
1349.255700  	90.011793 
1350.692607  	89.981213 
1352.129514  	89.950355 
1353.566421  	89.915142 
1355.003328  	89.892972 
1356.440235  	89.887421 
1357.877142  	89.869226 
1359.314049  	89.867382 
1360.750956  	89.847579 
1362.187863  	89.788973 
1363.624770  	89.720931 
1365.061677  	89.692484 
1366.498584  	89.684766 
1367.935491  	89.666844 
1369.372399  	89.618795 
1370.809306  	89.584778 
1372.246213  	89.556509 
1373.683120  	89.483462 
1375.120027  	89.388019 
1376.556934  	89.326930 
1377.993841  	89.281110 
1379.430748  	89.251646 
1380.867655  	89.233664 
1382.304562  	89.221750 
1383.741469  	89.204430 
1385.178376  	89.168661 
1386.615283  	89.137494 
1388.052190  	89.082718 
1389.489097  	89.047680 
1390.926004  	89.070130 
1392.362911  	89.123889 
1393.799818  	89.162033 
1395.236725  	89.160895 
1396.673632  	89.139322 
1398.110539  	89.151654 
1399.547446  	89.162884 
1400.984353  	89.192534 
1402.421260  	89.276927 
1403.858167  	89.341133 
1405.295074  	89.350333 
1406.731981  	89.393068 
1408.168888  	89.420473 
1409.605795  	89.408789 
1411.042702  	89.394797 
1412.479609  	89.427275 
1413.916516  	89.492318 
1415.353423  	89.533832 
1416.790330  	89.549163 
1418.227238  	89.543731 
1419.664145  	89.506495 
1421.101052  	89.569627 
1422.537959  	89.647033 
1423.974866  	89.704184 
1425.411773  	89.779121 
1426.848680  	89.819211 
1428.285587  	89.811926 
1429.722494  	89.786639 
1431.159401  	89.761608 
1432.596308  	89.794583 
1434.033215  	89.857327 
1435.470122  	89.882837 
1436.907029  	89.785301 
1438.343936  	89.690910 
1439.780843  	89.753897 
1441.217750  	89.820104 
1442.654657  	89.817312 
1444.091564  	89.823177 
1445.528471  	89.836576 
1446.965378  	89.795660 
1448.402285  	89.727552 
1449.839192  	89.668216 
1451.276099  	89.653461 
1452.713006  	89.691810 
1454.149913  	89.743777 
1455.586820  	89.783149 
1457.023727  	89.737334 
1458.460634  	89.583334 
1459.897541  	89.615372 
1461.334448  	89.702745 
1462.771355  	89.794890 
1464.208262  	89.835315 
1465.645169  	89.720285 
1467.082076  	89.640963 
1468.518984  	89.665730 
1469.955891  	89.729815 
1471.392798  	89.803659 
1472.829705  	89.741004 
1474.266612  	89.651702 
1475.703519  	89.670402 
1477.140426  	89.622810 
1478.577333  	89.625445 
1480.014240  	89.626609 
1481.451147  	89.548849 
1482.888054  	89.548074 
1484.324961  	89.559538 
1485.761868  	89.484721 
1487.198775  	89.406521 
1488.635682  	89.317027 
1490.072589  	89.240786 
1491.509496  	89.246630 
1492.946403  	89.289050 
1494.383310  	89.358924 
1495.820217  	89.351362 
1497.257124  	89.156851 
1498.694031  	89.034406 
1500.130938  	88.989742 
1501.567845  	88.992186 
1503.004752  	89.058574 
1504.441659  	89.116167 
1505.878566  	89.170981 
1507.315473  	88.920473 
1508.752380  	88.711180 
1510.189287  	88.786484 
1511.626194  	88.792832 
1513.063101  	88.798195 
1514.500008  	88.818625 
1515.936915  	88.769803 
1517.373822  	88.669380 
1518.810730  	88.565419 
1520.247637  	88.448152 
1521.684544  	88.387884 
1523.121451  	88.326689 
1524.558358  	88.317322 
1525.995265  	88.336966 
1527.432172  	88.232620 
1528.869079  	88.165533 
1530.305986  	88.106707 
1531.742893  	87.956228 
1533.179800  	87.788031 
1534.616707  	87.525302 
1536.053614  	87.476913 
1537.490521  	87.575003 
1538.927428  	87.572437 
1540.364335  	87.258981 
1541.801242  	86.993383 
1543.238149  	86.819304 
1544.675056  	86.761115 
1546.111963  	86.699052 
1547.548870  	86.629443 
1548.985777  	86.514008 
1550.422684  	86.275856 
1551.859591  	86.130488 
1553.296498  	86.035151 
1554.733405  	85.819587 
1556.170312  	85.719620 
1557.607219  	85.693287 
1559.044126  	85.501222 
1560.481033  	85.180898 
1561.917940  	85.033154 
1563.354847  	84.930929 
1564.791754  	84.905221 
1566.228661  	84.708280 
1567.665569  	84.566895 
1569.102476  	84.347127 
1570.539383  	83.882933 
1571.976290  	83.847309 
1573.413197  	83.900882 
1574.850104  	83.828862 
1576.287011  	83.685107 
1577.723918  	83.345245 
1579.160825  	83.167515 
1580.597732  	83.011241 
1582.034639  	82.772517 
1583.471546  	82.639941 
1584.908453  	82.480125 
1586.345360  	82.243329 
1587.782267  	82.069802 
1589.219174  	81.787252 
1590.656081  	81.492165 
1592.092988  	81.268693 
1593.529895  	80.986117 
1594.966802  	80.721930 
1596.403709  	80.411186 
1597.840616  	80.058463 
1599.277523  	79.790109 
1600.714430  	79.385968 
1602.151337  	78.976746 
1603.588244  	78.617738 
1605.025151  	78.185940 
1606.462058  	77.784025 
1607.898965  	77.355691 
1609.335872  	76.871590 
1610.772779  	76.490569 
1612.209686  	76.054875 
1613.646593  	75.596280 
1615.083500  	75.267378 
1616.520407  	74.661032 
1617.957315  	74.037849 
1619.394222  	73.688318 
1620.831129  	73.316212 
1622.268036  	73.127805 
1623.704943  	72.755321 
1625.141850  	72.192495 
1626.578757  	71.879426 
1628.015664  	71.461567 
1629.452571  	71.223153 
1630.889478  	71.156891 
1632.326385  	70.934332 
1633.763292  	70.860980 
1635.200199  	70.839336 
1636.637106  	70.651166 
1638.074013  	70.728693 
1639.510920  	70.711857 
1640.947827  	70.848729 
1642.384734  	71.174513 
1643.821641  	71.270118 
1645.258548  	71.399717 
1646.695455  	71.639487 
1648.132362  	71.789142 
1649.569269  	72.229214 
1651.006176  	72.550593 
1652.443083  	72.869201 
1653.879990  	73.829607 
1655.316897  	73.800378 
1656.753804  	74.046880 
1658.190711  	74.572809 
1659.627618  	74.970566 
1661.064525  	75.294706 
1662.501432  	75.690553 
1663.938339  	76.128545 
1665.375246  	76.550842 
1666.812154  	76.896591 
1668.249061  	77.382286 
1669.685968  	78.019430 
1671.122875  	78.407903 
1672.559782  	78.847849 
1673.996689  	79.229115 
1675.433596  	79.509005 
1676.870503  	80.001313 
1678.307410  	80.352116 
1679.744317  	80.807326 
1681.181224  	81.397515 
1682.618131  	81.775272 
1684.055038  	82.139018 
1685.491945  	82.675051 
1686.928852  	83.043162 
1688.365759  	83.562071 
1689.802666  	84.057765 
1691.239573  	84.428298 
1692.676480  	84.900532 
1694.113387  	85.213954 
1695.550294  	85.471283 
1696.987201  	85.861303 
1698.424108  	86.075381 
1699.861015  	86.286619 
1701.297922  	86.810585 
1702.734829  	87.129507 
1704.171736  	87.434812 
1705.608643  	87.735966 
1707.045550  	87.967981 
1708.482457  	88.256298 
1709.919364  	88.519153 
1711.356271  	88.804250 
1712.793178  	89.105153 
1714.230085  	89.352470 
1715.666992  	89.640056 
1717.103900  	89.894161 
1718.540807  	90.085279 
1719.977714  	90.352145 
1721.414621  	90.595477 
1722.851528  	90.878632 
1724.288435  	91.141193 
1725.725342  	91.303034 
1727.162249  	91.514301 
1728.599156  	91.648275 
1730.036063  	91.768596 
1731.472970  	91.956549 
1732.909877  	92.038963 
1734.346784  	92.077014 
1735.783691  	92.297208 
1737.220598  	92.459965 
1738.657505  	92.652318 
1740.094412  	92.849067 
1741.531319  	92.915565 
1742.968226  	93.007978 
1744.405133  	93.095333 
1745.842040  	93.222895 
1747.278947  	93.409151 
1748.715854  	93.498795 
1750.152761  	93.585110 
1751.589668  	93.708911 
1753.026575  	93.799149 
1754.463482  	93.944693 
1755.900389  	94.048057 
1757.337296  	94.059961 
1758.774203  	94.168830 
1760.211110  	94.227453 
1761.648017  	94.226490 
1763.084924  	94.195185 
1764.521831  	94.192599 
1765.958738  	94.328644 
1767.395646  	94.424255 
1768.832553  	94.495373 
1770.269460  	94.592536 
1771.706367  	94.570662 
1773.143274  	94.516773 
1774.580181  	94.596247 
1776.017088  	94.644455 
1777.453995  	94.763359 
1778.890902  	94.864364 
1780.327809  	94.874383 
1781.764716  	94.895274 
1783.201623  	94.911005 
1784.638530  	94.941086 
1786.075437  	95.026375 
1787.512344  	95.085616 
1788.949251  	95.193360 
1790.386158  	95.318892 
1791.823065  	95.282930 
1793.259972  	95.148539 
1794.696879  	95.087310 
1796.133786  	95.191864 
1797.570693  	95.370804 
1799.007600  	95.418841 
1800.444507  	95.416925 
1801.881414  	95.393437 
1803.318321  	95.346878 
1804.755228  	95.415226 
1806.192135  	95.501415 
1807.629042  	95.529839 
1809.065949  	95.550988 
1810.502856  	95.517494 
1811.939763  	95.506643 
1813.376670  	95.545186 
1814.813577  	95.586155 
1816.250485  	95.632552 
1817.687392  	95.601513 
1819.124299  	95.604439 
1820.561206  	95.642544 
1821.998113  	95.582073 
1823.435020  	95.573463 
1824.871927  	95.594059 
1826.308834  	95.577996 
1827.745741  	95.689780 
1829.182648  	95.731111 
1830.619555  	95.626607 
1832.056462  	95.697118 
1833.493369  	95.772309 
1834.930276  	95.797063 
1836.367183  	95.842208 
1837.804090  	95.840024 
1839.240997  	95.847327 
1840.677904  	95.849226 
1842.114811  	95.867775 
1843.551718  	95.938919 
1844.988625  	95.838378 
1846.425532  	95.762375 
1847.862439  	95.836158 
1849.299346  	95.854437 
1850.736253  	95.891589 
1852.173160  	95.911711 
1853.610067  	95.809334 
1855.046974  	95.823152 
1856.483881  	95.844901 
1857.920788  	95.842842 
1859.357695  	95.874199 
1860.794602  	95.783178 
1862.231509  	95.825505 
1863.668416  	95.981170 
1865.105323  	95.969100 
1866.542231  	95.970850 
1867.979138  	95.906013 
1869.416045  	95.691280 
1870.852952  	95.688207 
1872.289859  	95.801826 
1873.726766  	95.948789 
1875.163673  	95.990229 
1876.600580  	95.916434 
1878.037487  	96.007596 
1879.474394  	96.012827 
1880.911301  	95.874880 
1882.348208  	95.906254 
1883.785115  	95.929104 
1885.222022  	95.976333 
1886.658929  	96.141783 
1888.095836  	96.108217 
1889.532743  	95.978801 
1890.969650  	95.885895 
1892.406557  	95.912883 
1893.843464  	95.996188 
1895.280371  	95.920724 
1896.717278  	95.868422 
1898.154185  	95.912420 
1899.591092  	95.887640 
1901.027999  	95.909402 
1902.464906  	95.920106 
1903.901813  	95.880084 
1905.338720  	95.966395 
1906.775627  	95.991981 
1908.212534  	95.982034 
1909.649441  	96.018098 
1911.086348  	95.972379 
1912.523255  	95.977879 
1913.960162  	95.941196 
1915.397069  	95.923612 
1916.833977  	96.012685 
1918.270884  	95.954949 
1919.707791  	95.890952 
1921.144698  	95.983288 
1922.581605  	95.987710 
1924.018512  	95.979635 
1925.455419  	95.985324 
1926.892326  	95.845789 
1928.329233  	95.858159 
1929.766140  	95.945141 
1931.203047  	95.975932 
1932.639954  	95.935207 
1934.076861  	95.750367 
1935.513768  	95.819268 
1936.950675  	95.974703 
1938.387582  	95.873535 
1939.824489  	95.944236 
1941.261396  	96.021652 
1942.698303  	95.911188 
1944.135210  	95.903060 
1945.572117  	95.808248 
1947.009024  	95.795976 
1948.445931  	95.862083 
1949.882838  	95.734997 
1951.319745  	95.719867 
1952.756652  	95.771259 
1954.193559  	95.721632 
1955.630466  	95.728847 
1957.067373  	95.722196 
1958.504280  	95.803300 
1959.941187  	95.760510 
1961.378094  	95.465023 
1962.815001  	95.614377 
1964.251908  	95.896009 
1965.688816  	95.773834 
1967.125723  	95.682410 
1968.562630  	95.597525 
1969.999537  	95.527539 
1971.436444  	95.618991 
1972.873351  	95.625036 
1974.310258  	95.701332 
1975.747165  	95.801257 
1977.184072  	95.969579 
1978.620979  	95.951189 
1980.057886  	95.363981 
1981.494793  	95.374067 
1982.931700  	96.025678 
1984.368607  	96.143029 
1985.805514  	95.823941 
1987.242421  	95.281460 
1988.679328  	95.025536 
1990.116235  	95.219983 
1991.553142  	95.296081 
1992.990049  	95.279645 
1994.426956  	95.358496 
1995.863863  	95.376742 
1997.300770  	95.375105 
1998.737677  	95.446742 
2000.174584  	95.378507 
2001.611491  	95.464706 
2003.048398  	95.360030 
2004.485305  	95.166285 
2005.922212  	95.216480 
2007.359119  	95.087428 
2008.796026  	95.128453 
2010.232933  	95.289797 
2011.669840  	95.128124 
2013.106747  	95.229001 
2014.543654  	95.252864 
2015.980562  	94.979742 
2017.417469  	95.128374 
2018.854376  	95.336029 
2020.291283  	95.422564 
2021.728190  	95.552192 
2023.165097  	95.345417 
2024.602004  	95.175030 
2026.038911  	95.398014 
2027.475818  	95.698994 
2028.912725  	95.792019 
2030.349632  	95.619156 
2031.786539  	95.480475 
2033.223446  	95.219147 
2034.660353  	95.052278 
2036.097260  	95.299750 
2037.534167  	95.293495 
2038.971074  	95.087727 
2040.407981  	95.104603 
2041.844888  	95.127378 
2043.281795  	95.228014 
2044.718702  	95.101406 
2046.155609  	94.746499 
2047.592516  	94.817669 
2049.029423  	94.818871 
2050.466330  	94.558179 
2051.903237  	94.681134 
2053.340144  	94.816865 
2054.777051  	94.667424 
2056.213958  	94.601455 
2057.650865  	94.721068 
2059.087772  	94.772132 
2060.524679  	94.549901 
2061.961586  	94.410475 
2063.398493  	94.525544 
2064.835401  	94.534614 
2066.272308  	94.550472 
2067.709215  	94.545289 
2069.146122  	94.339384 
2070.583029  	94.366893 
2072.019936  	94.517140 
2073.456843  	94.449850 
2074.893750  	94.431252 
2076.330657  	94.400108 
2077.767564  	94.288932 
2079.204471  	94.276050 
2080.641378  	94.340832 
2082.078285  	94.477715 
2083.515192  	94.503997 
2084.952099  	94.398737 
2086.389006  	94.422079 
2087.825913  	94.413521 
2089.262820  	94.343004 
2090.699727  	94.359092 
2092.136634  	94.323759 
2093.573541  	94.328860 
2095.010448  	94.382325 
2096.447355  	94.357750 
2097.884262  	94.401075 
2099.321169  	94.396063 
2100.758076  	94.356913 
2102.194983  	94.446866 
2103.631890  	94.422079 
2105.068797  	94.345638 
2106.505704  	94.375677 
2107.942611  	94.392087 
2109.379518  	94.436274 
2110.816425  	94.404502 
2112.253332  	94.333062 
2113.690239  	94.425978 
2115.127147  	94.443371 
2116.564054  	94.396906 
2118.000961  	94.483669 
2119.437868  	94.517640 
2120.874775  	94.492640 
2122.311682  	94.440896 
2123.748589  	94.335759 
2125.185496  	94.336767 
2126.622403  	94.388370 
2128.059310  	94.421212 
2129.496217  	94.476951 
2130.933124  	94.465584 
2132.370031  	94.458829 
2133.806938  	94.459184 
2135.243845  	94.398464 
2136.680752  	94.381060 
2138.117659  	94.380728 
2139.554566  	94.484369 
2140.991473  	94.661715 
2142.428380  	94.690069 
2143.865287  	94.767690 
2145.302194  	94.814887 
2146.739101  	94.799549 
2148.176008  	94.987039 
2149.612915  	94.983860 
2151.049822  	94.891694 
2152.486729  	95.052631 
2153.923636  	95.128354 
2155.360543  	95.405661 
2156.797450  	95.665017 
2158.234357  	95.332678 
2159.671264  	95.288621 
2161.108171  	95.236442 
2162.545078  	94.770688 
2163.981985  	94.754212 
2165.418893  	94.945462 
2166.855800  	94.949305 
2168.292707  	95.117604 
2169.729614  	95.315367 
2171.166521  	95.258010 
2172.603428  	94.940624 
2174.040335  	94.699877 
2175.477242  	94.660654 
2176.914149  	94.697404 
2178.351056  	94.897566 
2179.787963  	94.989494 
2181.224870  	94.783094 
2182.661777  	94.723706 
2184.098684  	94.725105 
2185.535591  	94.633461 
2186.972498  	94.695872 
2188.409405  	94.776901 
2189.846312  	94.776850 
2191.283219  	94.739348 
2192.720126  	94.726563 
2194.157033  	94.819422 
2195.593940  	94.825663 
2197.030847  	94.833836 
2198.467754  	94.918764 
2199.904661  	94.842624 
2201.341568  	94.891739 
2202.778475  	95.084003 
2204.215382  	95.058650 
2205.652289  	95.059342 
2207.089196  	95.141874 
2208.526103  	95.188843 
2209.963010  	95.248683 
2211.399917  	95.113198 
2212.836824  	94.895888 
2214.273732  	94.858193 
2215.710639  	95.006348 
2217.147546  	95.225369 
2218.584453  	95.220424 
2220.021360  	95.142472 
2221.458267  	95.218866 
2222.895174  	95.212899 
2224.332081  	95.305245 
2225.768988  	95.453758 
2227.205895  	95.320961 
2228.642802  	95.269790 
2230.079709  	95.298359 
2231.516616  	95.249860 
2232.953523  	95.394364 
2234.390430  	95.448037 
2235.827337  	95.358654 
2237.264244  	95.443817 
2238.701151  	95.448543 
2240.138058  	95.383599 
2241.574965  	95.405272 
2243.011872  	95.350220 
2244.448779  	95.292588 
2245.885686  	95.263180 
2247.322593  	95.281036 
2248.759500  	95.437561 
2250.196407  	95.504583 
2251.633314  	95.496995 
2253.070221  	95.507905 
2254.507128  	95.521451 
2255.944035  	95.544694 
2257.380942  	95.572377 
2258.817849  	95.598136 
2260.254756  	95.629015 
2261.691663  	95.591352 
2263.128570  	95.545526 
2264.565478  	95.544283 
2266.002385  	95.574970 
2267.439292  	95.601165 
2268.876199  	95.582920 
2270.313106  	95.579036 
2271.750013  	95.636391 
2273.186920  	95.672606 
2274.623827  	95.696708 
2276.060734  	95.686996 
2277.497641  	95.637942 
2278.934548  	95.639186 
2280.371455  	95.661229 
2281.808362  	95.659654 
2283.245269  	95.701496 
2284.682176  	95.716999 
2286.119083  	95.679695 
2287.555990  	95.624197 
2288.992897  	95.589673 
2290.429804  	95.609623 
2291.866711  	95.619281 
2293.303618  	95.611659 
2294.740525  	95.623655 
2296.177432  	95.652539 
2297.614339  	95.592507 
2299.051246  	95.604314 
2300.488153  	95.598308 
2301.925060  	95.569438 
2303.361967  	95.534875 
2304.798874  	95.515328 
2306.235781  	95.573268 
2307.672688  	95.625609 
2309.109595  	95.607833 
2310.546502  	95.532395 
2311.983409  	95.473788 
2313.420317  	95.493205 
2314.857224  	95.444102 
2316.294131  	95.383807 
2317.731038  	95.476083 
2319.167945  	95.524794 
2320.604852  	95.465098 
2322.041759  	95.384835 
2323.478666  	95.275017 
2324.915573  	95.326229 
2326.352480  	95.533712 
2327.789387  	95.708511 
2329.226294  	95.846950 
2330.663201  	95.881385 
2332.100108  	95.855943 
2333.537015  	95.926374 
2334.973922  	95.984689 
2336.410829  	95.980850 
2337.847736  	95.939812 
2339.284643  	95.915658 
2340.721550  	96.014932 
2342.158457  	96.018234 
2343.595364  	95.822774 
2345.032271  	95.631642 
2346.469178  	95.460217 
2347.906085  	95.405123 
2349.342992  	95.508349 
2350.779899  	95.596386 
2352.216806  	95.643820 
2353.653713  	95.624720 
2355.090620  	95.575406 
2356.527527  	95.593645 
2357.964434  	95.647558 
2359.401341  	95.727829 
2360.838248  	95.859986 
2362.275155  	95.972915 
2363.712063  	96.078665 
2365.148970  	96.180321 
2366.585877  	96.240119 
2368.022784  	96.301445 
2369.459691  	96.354716 
2370.896598  	96.406673 
2372.333505  	96.491429 
2373.770412  	96.518650 
2375.207319  	96.501277 
2376.644226  	96.504197 
2378.081133  	96.501349 
2379.518040  	96.503274 
2380.954947  	96.510620 
2382.391854  	96.533462 
2383.828761  	96.552927 
2385.265668  	96.550400 
2386.702575  	96.508976 
2388.139482  	96.481183 
2389.576389  	96.449938 
2391.013296  	96.413663 
2392.450203  	96.367635 
2393.887110  	96.356562 
2395.324017  	96.392278 
2396.760924  	96.402652 
2398.197831  	96.414173 
2399.634738  	96.439740 
2401.071645  	96.433372 
2402.508552  	96.443298 
2403.945459  	96.476146 
2405.382366  	96.506387 
2406.819273  	96.558473 
2408.256180  	96.633952 
2409.693087  	96.734946 
2411.129994  	96.795415 
2412.566901  	96.793929 
2414.003809  	96.836638 
2415.440716  	96.882568 
2416.877623  	96.882249 
2418.314530  	96.885614 
2419.751437  	96.867236 
2421.188344  	96.864409 
2422.625251  	96.868956 
2424.062158  	96.796201 
2425.499065  	96.750792 
2426.935972  	96.788330 
2428.372879  	96.831995 
2429.809786  	96.844430 
2431.246693  	96.785405 
2432.683600  	96.758690 
2434.120507  	96.828520 
2435.557414  	96.837399 
2436.994321  	96.804409 
2438.431228  	96.800387 
2439.868135  	96.748464 
2441.305042  	96.735037 
2442.741949  	96.829048 
2444.178856  	96.891770 
2445.615763  	96.884386 
2447.052670  	96.878896 
2448.489577  	96.876889 
2449.926484  	96.871442 
2451.363391  	96.902980 
2452.800298  	96.928849 
2454.237205  	96.886479 
2455.674112  	96.860839 
2457.111019  	96.885023 
2458.547926  	96.897813 
2459.984833  	96.912503 
2461.421740  	96.906006 
2462.858648  	96.867544 
2464.295555  	96.863304 
2465.732462  	96.884997 
2467.169369  	96.925574 
2468.606276  	96.967389 
2470.043183  	96.947578 
2471.480090  	96.924019 
2472.916997  	96.954496 
2474.353904  	96.992189 
2475.790811  	96.997666 
2477.227718  	96.978589 
2478.664625  	96.977671 
2480.101532  	96.958584 
2481.538439  	96.911089 
2482.975346  	96.931551 
2484.412253  	96.965676 
2485.849160  	96.972837 
2487.286067  	97.045183 
2488.722974  	97.100573 
2490.159881  	97.067854 
2491.596788  	97.040349 
2493.033695  	97.063853 
2494.470602  	97.114848 
2495.907509  	97.115385 
2497.344416  	97.087855 
2498.781323  	97.114203 
2500.218230  	97.114329 
2501.655137  	97.101517 
2503.092044  	97.136459 
2504.528951  	97.135506 
2505.965858  	97.125558 
2507.402765  	97.119656 
2508.839672  	97.086429 
2510.276579  	97.107587 
2511.713486  	97.118730 
2513.150394  	97.069699 
2514.587301  	97.069003 
2516.024208  	97.110984 
2517.461115  	97.172844 
2518.898022  	97.213325 
2520.334929  	97.184564 
2521.771836  	97.176281 
2523.208743  	97.168482 
2524.645650  	97.139603 
2526.082557  	97.168316 
2527.519464  	97.178850 
2528.956371  	97.165338 
2530.393278  	97.190180 
2531.830185  	97.198122 
2533.267092  	97.215838 
2534.703999  	97.237716 
2536.140906  	97.226988 
2537.577813  	97.239027 
2539.014720  	97.242474 
2540.451627  	97.250287 
2541.888534  	97.276025 
2543.325441  	97.230797 
2544.762348  	97.201233 
2546.199255  	97.233533 
2547.636162  	97.240116 
2549.073069  	97.261377 
2550.509976  	97.272093 
2551.946883  	97.241813 
2553.383790  	97.248560 
2554.820697  	97.256371 
2556.257604  	97.253540 
2557.694511  	97.280280 
2559.131418  	97.297826 
2560.568325  	97.309042 
2562.005232  	97.320704 
2563.442140  	97.318227 
2564.879047  	97.301024 
2566.315954  	97.274956 
2567.752861  	97.287458 
2569.189768  	97.310524 
2570.626675  	97.311566 
2572.063582  	97.332415 
2573.500489  	97.315402 
2574.937396  	97.267373 
2576.374303  	97.278312 
2577.811210  	97.301398 
2579.248117  	97.303462 
2580.685024  	97.284626 
2582.121931  	97.260657 
2583.558838  	97.283231 
2584.995745  	97.276606 
2586.432652  	97.254281 
2587.869559  	97.309709 
2589.306466  	97.325929 
2590.743373  	97.289915 
2592.180280  	97.296522 
2593.617187  	97.293063 
2595.054094  	97.289747 
2596.491001  	97.296517 
2597.927908  	97.274370 
2599.364815  	97.272995 
2600.801722  	97.273127 
2602.238629  	97.249318 
2603.675536  	97.246032 
2605.112443  	97.249172 
2606.549350  	97.256550 
2607.986257  	97.264440 
2609.423164  	97.261382 
2610.860071  	97.262279 
2612.296979  	97.232811 
2613.733886  	97.206745 
2615.170793  	97.221537 
2616.607700  	97.207935 
2618.044607  	97.197252 
2619.481514  	97.208356 
2620.918421  	97.180957 
2622.355328  	97.181222 
2623.792235  	97.215062 
2625.229142  	97.197428 
2626.666049  	97.165957 
2628.102956  	97.165020 
2629.539863  	97.189319 
2630.976770  	97.220198 
2632.413677  	97.223748 
2633.850584  	97.226408 
2635.287491  	97.236478 
2636.724398  	97.221597 
2638.161305  	97.211652 
2639.598212  	97.212096 
2641.035119  	97.187835 
2642.472026  	97.175029 
2643.908933  	97.208305 
2645.345840  	97.229907 
2646.782747  	97.209494 
2648.219654  	97.208403 
2649.656561  	97.224016 
2651.093468  	97.206131 
2652.530375  	97.194244 
2653.967282  	97.201843 
2655.404189  	97.191691 
2656.841096  	97.185367 
2658.278003  	97.186573 
2659.714910  	97.171431 
2661.151817  	97.154638 
2662.588725  	97.154900 
2664.025632  	97.169637 
2665.462539  	97.168885 
2666.899446  	97.152928 
2668.336353  	97.157464 
2669.773260  	97.164975 
2671.210167  	97.167867 
2672.647074  	97.179257 
2674.083981  	97.173475 
2675.520888  	97.163187 
2676.957795  	97.156062 
2678.394702  	97.140587 
2679.831609  	97.153547 
2681.268516  	97.166773 
2682.705423  	97.146387 
2684.142330  	97.150254 
2685.579237  	97.171609 
2687.016144  	97.171899 
2688.453051  	97.167594 
2689.889958  	97.159996 
2691.326865  	97.155091 
2692.763772  	97.158097 
2694.200679  	97.156141 
2695.637586  	97.147201 
2697.074493  	97.128502 
2698.511400  	97.114949 
2699.948307  	97.106837 
2701.385214  	97.091096 
2702.822121  	97.085361 
2704.259028  	97.071326 
2705.695935  	97.054832 
2707.132842  	97.074383 
2708.569749  	97.075897 
2710.006656  	97.051621 
2711.443564  	97.050048 
2712.880471  	97.037472 
2714.317378  	97.023754 
2715.754285  	97.023080 
2717.191192  	96.989224 
2718.628099  	96.957598 
2720.065006  	96.958161 
2721.501913  	96.958687 
2722.938820  	96.950051 
2724.375727  	96.926641 
2725.812634  	96.917366 
2727.249541  	96.934875 
2728.686448  	96.936029 
2730.123355  	96.931793 
2731.560262  	96.922743 
2732.997169  	96.882428 
2734.434076  	96.848142 
2735.870983  	96.836859 
2737.307890  	96.832229 
2738.744797  	96.832012 
2740.181704  	96.832702 
2741.618611  	96.833111 
2743.055518  	96.809108 
2744.492425  	96.785086 
2745.929332  	96.816083 
2747.366239  	96.827648 
2748.803146  	96.772468 
2750.240053  	96.742130 
2751.676960  	96.759519 
2753.113867  	96.772127 
2754.550774  	96.760792 
2755.987681  	96.726720 
2757.424588  	96.682790 
2758.861495  	96.651371 
2760.298402  	96.652004 
2761.735310  	96.655185 
2763.172217  	96.632016 
2764.609124  	96.628492 
2766.046031  	96.638365 
2767.482938  	96.620832 
2768.919845  	96.613098 
2770.356752  	96.607789 
2771.793659  	96.571548 
2773.230566  	96.537002 
2774.667473  	96.513639 
2776.104380  	96.493994 
2777.541287  	96.477720 
2778.978194  	96.456060 
2780.415101  	96.445951 
2781.852008  	96.447452 
2783.288915  	96.438231 
2784.725822  	96.417786 
2786.162729  	96.397918 
2787.599636  	96.383516 
2789.036543  	96.343792 
2790.473450  	96.290581 
2791.910357  	96.282464 
2793.347264  	96.281801 
2794.784171  	96.256484 
2796.221078  	96.246132 
2797.657985  	96.235930 
2799.094892  	96.221628 
2800.531799  	96.213677 
2801.968706  	96.186214 
2803.405613  	96.159650 
2804.842520  	96.138236 
2806.279427  	96.104338 
2807.716334  	96.086725 
2809.153241  	96.080564 
2810.590148  	96.066903 
2812.027056  	96.043017 
2813.463963  	96.010441 
2814.900870  	95.994654 
2816.337777  	95.966790 
2817.774684  	95.917515 
2819.211591  	95.900051 
2820.648498  	95.880839 
2822.085405  	95.853026 
2823.522312  	95.855285 
2824.959219  	95.830620 
2826.396126  	95.780310 
2827.833033  	95.744406 
2829.269940  	95.702560 
2830.706847  	95.679020 
2832.143754  	95.661599 
2833.580661  	95.622456 
2835.017568  	95.600404 
2836.454475  	95.577162 
2837.891382  	95.551395 
2839.328289  	95.535764 
2840.765196  	95.469352 
2842.202103  	95.394152 
2843.639010  	95.370778 
2845.075917  	95.343329 
2846.512824  	95.302618 
2847.949731  	95.259502 
2849.386638  	95.207203 
2850.823545  	95.166339 
2852.260452  	95.118774 
2853.697359  	95.070128 
2855.134266  	95.043370 
2856.571173  	95.007491 
2858.008080  	94.968952 
2859.444987  	94.943650 
2860.881895  	94.923633 
2862.318802  	94.914296 
2863.755709  	94.894163 
2865.192616  	94.863915 
2866.629523  	94.827078 
2868.066430  	94.757934 
2869.503337  	94.699286 
2870.940244  	94.667793 
2872.377151  	94.622120 
2873.814058  	94.583815 
2875.250965  	94.546028 
2876.687872  	94.488801 
2878.124779  	94.455129 
2879.561686  	94.425176 
2880.998593  	94.362751 
2882.435500  	94.301992 
2883.872407  	94.252614 
2885.309314  	94.195325 
2886.746221  	94.131459 
2888.183128  	94.074148 
2889.620035  	94.026338 
2891.056942  	93.985937 
2892.493849  	93.958846 
2893.930756  	93.915133 
2895.367663  	93.842367 
2896.804570  	93.788016 
2898.241477  	93.735242 
2899.678384  	93.656576 
2901.115291  	93.593891 
2902.552198  	93.535470 
2903.989105  	93.458786 
2905.426012  	93.393795 
2906.862919  	93.329745 
2908.299826  	93.252923 
2909.736733  	93.191331 
2911.173641  	93.145015 
2912.610548  	93.074728 
2914.047455  	92.977910 
2915.484362  	92.905880 
2916.921269  	92.849302 
2918.358176  	92.762103 
2919.795083  	92.668752 
2921.231990  	92.585438 
2922.668897  	92.517367 
2924.105804  	92.471137 
2925.542711  	92.394412 
2926.979618  	92.304700 
2928.416525  	92.257124 
2929.853432  	92.213650 
2931.290339  	92.163529 
2932.727246  	92.106656 
2934.164153  	92.023801 
2935.601060  	91.943122 
2937.037967  	91.850293 
2938.474874  	91.750738 
2939.911781  	91.689823 
2941.348688  	91.622322 
2942.785595  	91.534423 
2944.222502  	91.448260 
2945.659409  	91.342366 
2947.096316  	91.249244 
2948.533223  	91.178084 
2949.970130  	91.094992 
2951.407037  	90.991772 
2952.843944  	90.851851 
2954.280851  	90.731638 
2955.717758  	90.649885 
2957.154665  	90.530056 
2958.591572  	90.428154 
2960.028479  	90.367478 
2961.465387  	90.270721 
2962.902294  	90.177704 
2964.339201  	90.095967 
2965.776108  	90.004822 
2967.213015  	89.928864 
2968.649922  	89.817753 
2970.086829  	89.694528 
2971.523736  	89.598356 
2972.960643  	89.475521 
2974.397550  	89.360519 
2975.834457  	89.251561 
2977.271364  	89.119743 
2978.708271  	89.033183 
2980.145178  	88.936837 
2981.582085  	88.792664 
2983.018992  	88.688791 
2984.455899  	88.588878 
2985.892806  	88.452995 
2987.329713  	88.313318 
2988.766620  	88.173464 
2990.203527  	88.055999 
2991.640434  	87.944538 
2993.077341  	87.817002 
2994.514248  	87.685213 
2995.951155  	87.538549 
2997.388062  	87.404259 
2998.824969  	87.271004 
3000.261876  	87.115810 
3001.698783  	86.981775 
3003.135690  	86.816304 
3004.572597  	86.619761 
3006.009504  	86.486426 
3007.446411  	86.350321 
3008.883318  	86.183009 
3010.320226  	86.044583 
3011.757133  	85.905643 
3013.194040  	85.762078 
3014.630947  	85.610545 
3016.067854  	85.437860 
3017.504761  	85.272899 
3018.941668  	85.100539 
3020.378575  	84.925623 
3021.815482  	84.747118 
3023.252389  	84.549116 
3024.689296  	84.377722 
3026.126203  	84.207513 
3027.563110  	84.023297 
3029.000017  	83.846245 
3030.436924  	83.630966 
3031.873831  	83.449043 
3033.310738  	83.310502 
3034.747645  	83.110946 
3036.184552  	82.936808 
3037.621459  	82.779314 
3039.058366  	82.554123 
3040.495273  	82.345530 
3041.932180  	82.146707 
3043.369087  	81.957280 
3044.805994  	81.786077 
3046.242901  	81.543470 
3047.679808  	81.320507 
3049.116715  	81.142849 
3050.553622  	80.912708 
3051.990529  	80.700683 
3053.427436  	80.487558 
3054.864343  	80.261115 
3056.301250  	80.076531 
3057.738157  	79.840663 
3059.175064  	79.600838 
3060.611972  	79.392124 
3062.048879  	79.119375 
3063.485786  	78.866474 
3064.922693  	78.636230 
3066.359600  	78.397794 
3067.796507  	78.213632 
3069.233414  	77.987827 
3070.670321  	77.734525 
3072.107228  	77.502651 
3073.544135  	77.222560 
3074.981042  	76.975678 
3076.417949  	76.739777 
3077.854856  	76.458957 
3079.291763  	76.216002 
3080.728670  	75.944139 
3082.165577  	75.670884 
3083.602484  	75.436002 
3085.039391  	75.139467 
3086.476298  	74.889323 
3087.913205  	74.662507 
3089.350112  	74.350750 
3090.787019  	74.082468 
3092.223926  	73.818825 
3093.660833  	73.538386 
3095.097740  	73.308596 
3096.534647  	73.030937 
3097.971554  	72.753322 
3099.408461  	72.485581 
3100.845368  	72.171929 
3102.282275  	71.911657 
3103.719182  	71.623234 
3105.156089  	71.308373 
3106.592996  	71.073134 
3108.029903  	70.791372 
3109.466811  	70.485735 
3110.903718  	70.193845 
3112.340625  	69.868720 
3113.777532  	69.594786 
3115.214439  	69.298531 
3116.651346  	68.985994 
3118.088253  	68.716795 
3119.525160  	68.372494 
3120.962067  	68.082111 
3122.398974  	67.844136 
3123.835881  	67.523462 
3125.272788  	67.271918 
3126.709695  	66.979738 
3128.146602  	66.619385 
3129.583509  	66.387527 
3131.020416  	66.100510 
3132.457323  	65.763884 
3133.894230  	65.490145 
3135.331137  	65.174353 
3136.768044  	64.916716 
3138.204951  	64.637942 
3139.641858  	64.279670 
3141.078765  	64.017966 
3142.515672  	63.716477 
3143.952579  	63.391443 
3145.389486  	63.133534 
3146.826393  	62.816976 
3148.263300  	62.567740 
3149.700207  	62.318503 
3151.137114  	61.970226 
3152.574021  	61.715840 
3154.010928  	61.431567 
3155.447835  	61.114485 
3156.884742  	60.872351 
3158.321649  	60.561269 
3159.758557  	60.305081 
3161.195464  	60.088011 
3162.632371  	59.790553 
3164.069278  	59.541173 
3165.506185  	59.220820 
3166.943092  	58.913678 
3168.379999  	58.751421 
3169.816906  	58.487622 
3171.253813  	58.222848 
3172.690720  	57.990903 
3174.127627  	57.682090 
3175.564534  	57.467346 
3177.001441  	57.218991 
3178.438348  	56.960197 
3179.875255  	56.824547 
3181.312162  	56.562599 
3182.749069  	56.306886 
3184.185976  	56.106257 
3185.622883  	55.798518 
3187.059790  	55.604807 
3188.496697  	55.411045 
3189.933604  	55.150651 
3191.370511  	55.004689 
3192.807418  	54.787921 
3194.244325  	54.586151 
3195.681232  	54.433093 
3197.118139  	54.159365 
3198.555046  	53.982760 
3199.991953  	53.815258 
3201.428860  	53.613045 
3202.865767  	53.536506 
3204.302674  	53.339496 
3205.739581  	53.145556 
3207.176488  	53.027202 
3208.613395  	52.771452 
3210.050303  	52.649689 
3211.487210  	52.552558 
3212.924117  	52.342822 
3214.361024  	52.296158 
3215.797931  	52.170233 
3217.234838  	51.979891 
3218.671745  	51.890154 
3220.108652  	51.691761 
3221.545559  	51.595685 
3222.982466  	51.557833 
3224.419373  	51.407553 
3225.856280  	51.377304 
3227.293187  	51.282635 
3228.730094  	51.136371 
3230.167001  	51.095463 
3231.603908  	50.931598 
3233.040815  	50.827087 
3234.477722  	50.784170 
3235.914629  	50.665330 
3237.351536  	50.692526 
3238.788443  	50.637377 
3240.225350  	50.506783 
3241.662257  	50.522444 
3243.099164  	50.433093 
3244.536071  	50.373960 
3245.972978  	50.366964 
3247.409885  	50.251819 
3248.846792  	50.283642 
3250.283699  	50.276758 
3251.720606  	50.183249 
3253.157513  	50.224232 
3254.594420  	50.157060 
3256.031327  	50.092414 
3257.468234  	50.088542 
3258.905142  	49.990542 
3260.342049  	50.036637 
3261.778956  	50.034628 
3263.215863  	49.924987 
3264.652770  	49.965687 
3266.089677  	49.901326 
3267.526584  	49.845176 
3268.963491  	49.904069 
3270.400398  	49.838263 
3271.837305  	49.871616 
3273.274212  	49.904672 
3274.711119  	49.810823 
3276.148026  	49.843180 
3277.584933  	49.806463 
3279.021840  	49.771752 
3280.458747  	49.874161 
3281.895654  	49.851712 
3283.332561  	49.832301 
3284.769468  	49.820086 
3286.206375  	49.758890 
3287.643282  	49.806055 
3289.080189  	49.779183 
3290.517096  	49.759597 
3291.954003  	49.815138 
3293.390910  	49.746518 
3294.827817  	49.767720 
3296.264724  	49.798825 
3297.701631  	49.725969 
3299.138538  	49.756723 
3300.575445  	49.725207 
3302.012352  	49.710651 
3303.449259  	49.758887 
3304.886166  	49.667805 
3306.323073  	49.708859 
3307.759980  	49.749277 
3309.196888  	49.656468 
3310.633795  	49.747277 
3312.070702  	49.748490 
3313.507609  	49.700081 
3314.944516  	49.796250 
3316.381423  	49.708383 
3317.818330  	49.667492 
3319.255237  	49.724431 
3320.692144  	49.648638 
3322.129051  	49.696693 
3323.565958  	49.722236 
3325.002865  	49.680174 
3326.439772  	49.720620 
3327.876679  	49.637402 
3329.313586  	49.670695 
3330.750493  	49.770729 
3332.187400  	49.686412 
3333.624307  	49.757921 
3335.061214  	49.795543 
3336.498121  	49.703931 
3337.935028  	49.780081 
3339.371935  	49.765753 
3340.808842  	49.753254 
3342.245749  	49.824908 
3343.682656  	49.773704 
3345.119563  	49.840736 
3346.556470  	49.883811 
3347.993377  	49.840005 
3349.430284  	49.939512 
3350.867191  	49.911604 
3352.304098  	49.924536 
3353.741005  	50.074511 
3355.177912  	50.050069 
3356.614819  	50.120840 
3358.051726  	50.199081 
3359.488634  	50.161573 
3360.925541  	50.299437 
3362.362448  	50.337119 
3363.799355  	50.325156 
3365.236262  	50.425258 
3366.673169  	50.374966 
3368.110076  	50.448261 
3369.546983  	50.606584 
3370.983890  	50.649454 
3372.420797  	50.837730 
3373.857704  	50.942236 
3375.294611  	50.950742 
3376.731518  	51.059040 
3378.168425  	51.068709 
3379.605332  	51.178559 
3381.042239  	51.345873 
3382.479146  	51.391768 
3383.916053  	51.564341 
3385.352960  	51.678976 
3386.789867  	51.744139 
3388.226774  	51.913173 
3389.663681  	51.939251 
3391.100588  	52.032651 
3392.537495  	52.206211 
3393.974402  	52.289681 
3395.411309  	52.517367 
3396.848216  	52.663248 
3398.285123  	52.713140 
3399.722030  	52.899763 
3401.158937  	53.011277 
3402.595844  	53.176518 
3404.032751  	53.361495 
3405.469658  	53.457626 
3406.906565  	53.736307 
3408.343473  	53.904858 
3409.780380  	53.973268 
3411.217287  	54.226968 
3412.654194  	54.323450 
3414.091101  	54.454507 
3415.528008  	54.754657 
3416.964915  	54.899086 
3418.401822  	55.103704 
3419.838729  	55.295518 
3421.275636  	55.388282 
3422.712543  	55.625671 
3424.149450  	55.777191 
3425.586357  	55.951172 
3427.023264  	56.240544 
3428.460171  	56.361257 
3429.897078  	56.521819 
3431.333985  	56.735339 
3432.770892  	56.904922 
3434.207799  	57.160233 
3435.644706  	57.324653 
3437.081613  	57.526996 
3438.518520  	57.812705 
3439.955427  	57.955437 
3441.392334  	58.190110 
3442.829241  	58.424662 
3444.266148  	58.552192 
3445.703055  	58.817868 
3447.139962  	59.016379 
3448.576869  	59.210207 
3450.013776  	59.505005 
3451.450683  	59.684177 
3452.887590  	59.961603 
3454.324497  	60.238960 
3455.761404  	60.369095 
3457.198311  	60.609785 
3458.635219  	60.767688 
3460.072126  	60.877076 
3461.509033  	61.151148 
3462.945940  	61.371782 
3464.382847  	61.612897 
3465.819754  	61.852160 
3467.256661  	62.001164 
3468.693568  	62.214129 
3470.130475  	62.351964 
3471.567382  	62.571209 
3473.004289  	62.952050 
3474.441196  	63.130060 
3475.878103  	63.318133 
3477.315010  	63.572818 
3478.751917  	63.686555 
3480.188824  	63.910927 
3481.625731  	64.161214 
3483.062638  	64.333024 
3484.499545  	64.565414 
3485.936452  	64.775890 
3487.373359  	65.065837 
3488.810266  	65.291432 
3490.247173  	65.363112 
3491.684080  	65.646105 
3493.120987  	65.936615 
3494.557894  	66.096713 
3495.994801  	66.357488 
3497.431708  	66.570442 
3498.868615  	66.782578 
3500.305522  	67.029625 
3501.742429  	67.184085 
3503.179336  	67.400674 
3504.616243  	67.601203 
3506.053150  	67.815786 
3507.490058  	68.141112 
3508.926965  	68.326377 
3510.363872  	68.511560 
3511.800779  	68.762839 
3513.237686  	68.908963 
3514.674593  	69.187503 
3516.111500  	69.499525 
3517.548407  	69.719046 
3518.985314  	69.993672 
3520.422221  	70.157159 
3521.859128  	70.311241 
3523.296035  	70.566095 
3524.732942  	70.730982 
3526.169849  	70.963236 
3527.606756  	71.221670 
3529.043663  	71.395014 
3530.480570  	71.635971 
3531.917477  	71.850187 
3533.354384  	72.097340 
3534.791291  	72.405325 
3536.228198  	72.628594 
3537.665105  	72.862105 
3539.102012  	73.040899 
3540.538919  	73.203504 
3541.975826  	73.502155 
3543.412733  	73.697786 
3544.849640  	73.836587 
3546.286547  	74.044745 
3547.723454  	74.176038 
3549.160361  	74.450827 
3550.597268  	74.777822 
3552.034175  	74.965222 
3553.471082  	75.184958 
3554.907989  	75.403437 
3556.344896  	75.628426 
3557.781804  	75.908330 
3559.218711  	76.109307 
3560.655618  	76.295812 
3562.092525  	76.483564 
3563.529432  	76.748572 
3564.966339  	77.159680 
3566.403246  	77.371946 
3567.840153  	77.391007 
3569.277060  	77.559491 
3570.713967  	77.739358 
3572.150874  	78.013066 
3573.587781  	78.306352 
3575.024688  	78.516645 
3576.461595  	78.745943 
3577.898502  	78.870464 
3579.335409  	79.023236 
3580.772316  	79.279121 
3582.209223  	79.410368 
3583.646130  	79.626279 
3585.083037  	79.886087 
3586.519944  	80.033592 
3587.956851  	80.340517 
3589.393758  	80.455152 
3590.830665  	80.457732 
3592.267572  	80.755301 
3593.704479  	81.018256 
3595.141386  	81.225787 
3596.578293  	81.530239 
3598.015200  	81.640656 
3599.452107  	81.772308 
3600.889014  	82.049686 
3602.325921  	82.191553 
3603.762828  	82.279303 
3605.199735  	82.469320 
3606.636642  	82.765473 
3608.073550  	82.987524 
3609.510457  	82.974619 
3610.947364  	83.075073 
3612.384271  	83.320312 
3613.821178  	83.610728 
3615.258085  	83.937395 
3616.694992  	84.216738 
3618.131899  	84.605626 
3619.568806  	84.881828 
3621.005713  	84.727294 
3622.442620  	84.758252 
3623.879527  	85.017431 
3625.316434  	85.369950 
3626.753341  	85.828930 
3628.190248  	86.136798 
3629.627155  	85.987811 
3631.064062  	85.799250 
3632.500969  	86.002091 
3633.937876  	86.446196 
3635.374783  	86.817585 
3636.811690  	86.981240 
3638.248597  	87.265802 
3639.685504  	87.493119 
3641.122411  	87.578106 
3642.559318  	87.713184 
3643.996225  	87.935774 
3645.433132  	88.378197 
3646.870039  	88.974433 
3648.306946  	89.337726 
3649.743853  	89.252570 
3651.180760  	88.940612 
3652.617667  	89.129221 
3654.054574  	89.727923 
3655.491481  	90.203246 
3656.928389  	90.391724 
3658.365296  	90.485854 
3659.802203  	90.706630 
3661.239110  	90.957115 
3662.676017  	91.176844 
3664.112924  	91.437900 
3665.549831  	91.658886 
3666.986738  	91.862928 
3668.423645  	92.155284 
3669.860552  	92.338331 
3671.297459  	92.250565 
3672.734366  	92.550903 
3674.171273  	93.050942 
3675.608180  	93.525414 
3677.045087  	93.483001 
3678.481994  	93.446869 
3679.918901  	93.636793 
3681.355808  	93.915026 
3682.792715  	94.177434 
3684.229622  	94.390677 
3685.666529  	94.638328 
3687.103436  	94.944145 
3688.540343  	95.192676 
3689.977250  	95.128353 
3691.414157  	94.998806 
3692.851064  	94.977855 
3694.287971  	95.187274 
3695.724878  	95.542404 
3697.161785  	95.706131 
3698.598692  	95.717853 
3700.035599  	95.779064 
3701.472506  	95.730878 
3702.909413  	95.480710 
3704.346320  	95.506655 
3705.783227  	95.767490 
3707.220135  	96.076922 
3708.657042  	96.403101 
3710.093949  	96.700392 
3711.530856  	96.485471 
3712.967763  	95.784343 
3714.404670  	95.805088 
3715.841577  	96.212042 
3717.278484  	96.443519 
3718.715391  	96.593165 
3720.152298  	96.726181 
3721.589205  	96.712695 
3723.026112  	96.638131 
3724.463019  	96.530139 
3725.899926  	96.382512 
3727.336833  	96.334533 
3728.773740  	96.480421 
3730.210647  	96.630535 
3731.647554  	96.767412 
3733.084461  	96.856632 
3734.521368  	96.716827 
3735.958275  	96.350502 
3737.395182  	96.179809 
3738.832089  	96.407458 
3740.268996  	96.678645 
3741.705903  	96.982149 
3743.142810  	97.206308 
3744.579717  	97.120586 
3746.016624  	96.617962 
3747.453531  	96.777980 
3748.890438  	97.112432 
3750.327345  	97.331085 
3751.764252  	97.321279 
3753.201159  	97.121600 
3754.638066  	97.000733 
3756.074973  	97.198014 
3757.511881  	97.387512 
3758.948788  	97.290788 
3760.385695  	97.102143 
3761.822602  	96.987395 
3763.259509  	97.059404 
3764.696416  	97.216198 
3766.133323  	97.228495 
3767.570230  	97.180893 
3769.007137  	97.254379 
3770.444044  	97.233435 
3771.880951  	97.048117 
3773.317858  	96.957081 
3774.754765  	96.985046 
3776.191672  	97.194494 
3777.628579  	97.408954 
3779.065486  	97.470062 
3780.502393  	97.067022 
3781.939300  	96.728363 
3783.376207  	96.966012 
3784.813114  	97.265173 
3786.250021  	97.171052 
3787.686928  	97.052650 
3789.123835  	97.140543 
3790.560742  	97.335579 
3791.997649  	97.376576 
3793.434556  	97.243618 
3794.871463  	97.303658 
3796.308370  	97.301101 
3797.745277  	96.976518 
3799.182184  	97.151483 
3800.619091  	97.552885 
3802.055998  	97.264910 
3803.492905  	96.957950 
3804.929812  	97.476523 
3806.366720  	97.918527 
3807.803627  	97.592283 
3809.240534  	97.112174 
3810.677441  	97.166912 
3812.114348  	97.287138 
3813.551255  	97.538316 
3814.988162  	97.922508 
3816.425069  	97.708945 
3817.861976  	97.118564 
3819.298883  	97.421782 
3820.735790  	97.911073 
3822.172697  	97.616419 
3823.609604  	97.215069 
3825.046511  	97.414317 
3826.483418  	97.645819 
3827.920325  	97.475766 
3829.357232  	97.243177 
3830.794139  	97.216154 
3832.231046  	97.247795 
3833.667953  	97.231673 
3835.104860  	97.252385 
3836.541767  	97.514118 
3837.978674  	97.700226 
3839.415581  	97.372913 
3840.852488  	97.368924 
3842.289395  	97.665321 
3843.726302  	97.512429 
3845.163209  	97.119021 
3846.600116  	96.985416 
3848.037023  	97.117410 
3849.473930  	97.451056 
3850.910837  	97.793471 
3852.347744  	98.051369 
3853.784651  	97.852662 
3855.221558  	96.924948 
3856.658466  	96.925462 
3858.095373  	97.244232 
3859.532280  	97.564281 
3860.969187  	97.808444 
3862.406094  	97.795890 
3863.843001  	97.568157 
3865.279908  	97.204673 
3866.716815  	96.950389 
3868.153722  	97.454193 
3869.590629  	98.205876 
3871.027536  	97.966524 
3872.464443  	97.602981 
3873.901350  	97.832627 
3875.338257  	97.630495 
3876.775164  	97.270485 
3878.212071  	97.434794 
3879.648978  	97.653206 
3881.085885  	97.467201 
3882.522792  	97.152355 
3883.959699  	97.253725 
3885.396606  	97.330471 
3886.833513  	97.163460 
3888.270420  	97.326789 
3889.707327  	97.599742 
3891.144234  	97.701033 
3892.581141  	97.524161 
3894.018048  	97.269513 
3895.454955  	97.233191 
3896.891862  	97.435587 
3898.328769  	97.666372 
3899.765676  	97.725651 
3901.202583  	97.532455 
3902.639490  	97.411758 
3904.076397  	97.527872 
3905.513305  	97.511716 
3906.950212  	97.382576 
3908.387119  	97.458058 
3909.824026  	97.628925 
3911.260933  	97.702625 
3912.697840  	97.570761 
3914.134747  	97.469069 
3915.571654  	97.534279 
3917.008561  	97.519392 
3918.445468  	97.391460 
3919.882375  	97.413573 
3921.319282  	97.512665 
3922.756189  	97.559458 
3924.193096  	97.496288 
3925.630003  	97.335892 
3927.066910  	97.265718 
3928.503817  	97.266502 
3929.940724  	97.287489 
3931.377631  	97.343039 
3932.814538  	97.328165 
3934.251445  	97.263748 
3935.688352  	97.273585 
3937.125259  	97.382193 
3938.562166  	97.452549 
3939.999073  	97.461980 
3941.435980  	97.442508 
3942.872887  	97.436761 
3944.309794  	97.404605 
3945.746701  	97.420857 
3947.183608  	97.478561 
3948.620515  	97.477846 
3950.057422  	97.428676 
3951.494329  	97.413442 
3952.931236  	97.420494 
3954.368143  	97.430948 
3955.805051  	97.430386 
3957.241958  	97.439926 
3958.678865  	97.480405 
3960.115772  	97.493202 
3961.552679  	97.428956 
3962.989586  	97.356137 
3964.426493  	97.357031 
3965.863400  	97.393831 
3967.300307  	97.395378 
3968.737214  	97.416046 
3970.174121  	97.454617 
3971.611028  	97.441483 
3973.047935  	97.397995 
3974.484842  	97.341511 
3975.921749  	97.318068 
3977.358656  	97.362187 
3978.795563  	97.399988 
3980.232470  	97.411434 
3981.669377  	97.398304 
3983.106284  	97.371446 
3984.543191  	97.389941 
3985.980098  	97.423226 
3987.417005  	97.444798 
3988.853912  	97.450748 
3990.290819  	97.410933 
3991.727726  	97.392607 
3993.164633  	97.410478 
3994.601540  	97.428632 
3996.038447  	97.474840 
3997.475354  	97.473463 
3998.912261  	97.430252 
4000.349168  	97.440706 