##TITLE=No Description
##DATA TYPE=INFRARED SPECTRUM
##XUNITS=1/CM
##YUNITS=%T
399.460154  	31.896478 
400.897061  	29.378754 
402.333968  	30.119613 
403.770875  	30.519389 
405.207782  	30.988828 
406.644689  	31.576660 
408.081596  	30.335488 
409.518503  	31.240049 
410.955410  	31.580199 
412.392317  	29.968946 
413.829224  	30.586934 
415.266131  	30.839346 
416.703038  	30.408187 
418.139945  	30.702875 
419.576852  	30.231603 
421.013759  	31.029116 
422.450666  	30.614301 
423.887574  	29.202486 
425.324481  	30.214604 
426.761388  	30.647706 
428.198295  	30.730120 
429.635202  	31.487900 
431.072109  	30.743681 
432.509016  	30.675774 
433.945923  	31.085812 
435.382830  	30.346699 
436.819737  	30.507224 
438.256644  	30.647156 
439.693551  	30.629991 
441.130458  	31.385484 
442.567365  	30.949008 
444.004272  	30.945269 
445.441179  	31.592441 
446.878086  	31.485639 
448.314993  	31.908004 
449.751900  	31.521545 
451.188807  	30.896537 
452.625714  	31.319571 
454.062621  	30.832808 
455.499528  	30.540540 
456.936435  	31.031658 
458.373342  	30.826794 
459.810249  	31.197183 
461.247156  	31.191637 
462.684063  	30.952752 
464.120970  	31.654882 
465.557877  	31.650814 
466.994784  	31.466037 
468.431691  	31.677821 
469.868598  	31.514384 
471.305505  	31.939939 
472.742413  	32.062287 
474.179320  	31.492695 
475.616227  	31.644478 
477.053134  	31.519973 
478.490041  	31.492863 
479.926948  	31.916074 
481.363855  	31.864260 
482.800762  	32.035311 
484.237669  	32.078818 
485.674576  	31.736988 
487.111483  	31.917817 
488.548390  	31.742888 
489.985297  	31.490633 
491.422204  	31.964803 
492.859111  	32.022322 
494.296018  	31.766321 
495.732925  	31.956495 
497.169832  	32.243401 
498.606739  	32.228526 
500.043646  	31.988041 
501.480553  	32.030386 
502.917460  	32.138862 
504.354367  	32.039391 
505.791274  	32.206828 
507.228181  	32.253753 
508.665088  	32.149718 
510.101995  	32.298863 
511.538902  	32.290059 
512.975809  	32.430302 
514.412716  	32.696048 
515.849623  	32.671502 
517.286530  	32.812995 
518.723437  	32.833595 
520.160344  	32.712702 
521.597251  	32.946531 
523.034159  	32.989051 
524.471066  	33.026175 
525.907973  	33.325460 
527.344880  	33.341240 
528.781787  	33.387183 
530.218694  	33.401823 
531.655601  	33.176265 
533.092508  	33.190240 
534.529415  	33.284166 
535.966322  	33.423892 
537.403229  	33.635664 
538.840136  	33.574136 
540.277043  	33.590844 
541.713950  	33.755628 
543.150857  	33.808999 
544.587764  	33.893043 
546.024671  	33.868019 
547.461578  	33.928879 
548.898485  	34.175539 
550.335392  	34.172906 
551.772299  	34.180004 
553.209206  	34.276748 
554.646113  	34.243037 
556.083020  	34.355347 
557.519927  	34.480727 
558.956834  	34.524867 
560.393741  	34.727650 
561.830648  	34.920827 
563.267555  	35.014754 
564.704462  	35.041685 
566.141369  	35.076355 
567.578276  	35.216874 
569.015183  	35.295519 
570.452090  	35.396325 
571.888997  	35.511561 
573.325905  	35.463228 
574.762812  	35.574859 
576.199719  	35.785380 
577.636626  	35.782651 
579.073533  	35.849382 
580.510440  	35.972002 
581.947347  	36.053145 
583.384254  	36.237795 
584.821161  	36.383612 
586.258068  	36.465651 
587.694975  	36.555886 
589.131882  	36.619386 
590.568789  	36.739529 
592.005696  	36.892834 
593.442603  	37.044843 
594.879510  	37.141576 
596.316417  	37.133510 
597.753324  	37.243341 
599.190231  	37.461744 
600.627138  	37.620455 
602.064045  	37.750285 
603.500952  	37.800801 
604.937859  	37.871047 
606.374766  	38.006958 
607.811673  	38.101101 
609.248580  	38.325138 
610.685487  	38.529833 
612.122394  	38.536289 
613.559301  	38.667184 
614.996208  	38.853748 
616.433115  	38.964727 
617.870022  	39.159638 
619.306929  	39.284818 
620.743836  	39.375702 
622.180744  	39.544681 
623.617651  	39.664957 
625.054558  	39.835099 
626.491465  	40.003688 
627.928372  	40.081232 
629.365279  	40.243169 
630.802186  	40.391830 
632.239093  	40.505311 
633.676000  	40.654212 
635.112907  	40.785785 
636.549814  	40.918778 
637.986721  	41.066850 
639.423628  	41.214334 
640.860535  	41.427616 
642.297442  	41.619369 
643.734349  	41.746274 
645.171256  	41.903600 
646.608163  	42.067240 
648.045070  	42.230347 
649.481977  	42.405479 
650.918884  	42.534119 
652.355791  	42.682093 
653.792698  	42.879835 
655.229605  	43.091023 
656.666512  	43.258391 
658.103419  	43.366434 
659.540326  	43.540594 
660.977233  	43.731345 
662.414140  	43.869017 
663.851047  	44.043816 
665.287954  	44.160825 
666.724861  	44.259765 
668.161768  	44.502141 
669.598675  	44.761069 
671.035582  	44.863655 
672.472490  	45.014291 
673.909397  	45.190213 
675.346304  	45.372655 
676.783211  	45.579823 
678.220118  	45.769125 
679.657025  	45.964072 
681.093932  	46.160802 
682.530839  	46.334546 
683.967746  	46.503973 
685.404653  	46.669268 
686.841560  	46.864316 
688.278467  	47.093095 
689.715374  	47.272514 
691.152281  	47.483138 
692.589188  	47.730536 
694.026095  	47.933908 
695.463002  	48.100945 
696.899909  	48.250362 
698.336816  	48.438416 
699.773723  	48.683348 
701.210630  	48.918574 
702.647537  	49.133908 
704.084444  	49.332677 
705.521351  	49.532390 
706.958258  	49.767121 
708.395165  	49.999203 
709.832072  	50.207235 
711.268979  	50.406962 
712.705886  	50.598108 
714.142793  	50.802626 
715.579700  	51.006652 
717.016607  	51.200431 
718.453514  	51.405969 
719.890421  	51.612616 
721.327328  	51.806555 
722.764236  	51.988873 
724.201143  	52.172750 
725.638050  	52.399880 
727.074957  	52.638478 
728.511864  	52.866067 
729.948771  	53.154565 
731.385678  	53.491462 
732.822585  	53.730530 
734.259492  	53.859849 
735.696399  	54.034342 
737.133306  	54.257091 
738.570213  	54.462068 
740.007120  	54.732740 
741.444027  	55.025372 
742.880934  	55.234218 
744.317841  	55.447031 
745.754748  	55.668643 
747.191655  	55.858782 
748.628562  	56.088274 
750.065469  	56.336148 
751.502376  	56.600090 
752.939283  	56.893847 
754.376190  	57.117894 
755.813097  	57.322755 
757.250004  	57.578027 
758.686911  	57.812297 
760.123818  	58.069899 
761.560725  	58.347552 
762.997632  	58.563205 
764.434539  	58.787791 
765.871446  	59.018609 
767.308353  	59.214853 
768.745260  	59.466689 
770.182167  	59.760896 
771.619075  	60.019196 
773.055982  	60.233165 
774.492889  	60.433275 
775.929796  	60.694707 
777.366703  	60.984365 
778.803610  	61.220998 
780.240517  	61.454108 
781.677424  	61.689757 
783.114331  	61.900914 
784.551238  	62.128488 
785.988145  	62.371833 
787.425052  	62.646169 
788.861959  	62.956417 
790.298866  	63.219946 
791.735773  	63.426759 
793.172680  	63.640039 
794.609587  	63.871291 
796.046494  	64.101893 
797.483401  	64.348517 
798.920308  	64.647128 
800.357215  	64.938867 
801.794122  	65.168057 
803.231029  	65.414676 
804.667936  	65.692466 
806.104843  	65.940003 
807.541750  	66.182366 
808.978657  	66.441236 
810.415564  	66.705492 
811.852471  	66.962425 
813.289378  	67.214553 
814.726285  	67.509283 
816.163192  	67.813025 
817.600099  	68.066854 
819.037006  	68.299521 
820.473913  	68.515397 
821.910821  	68.754006 
823.347728  	69.043288 
824.784635  	69.294680 
826.221542  	69.522684 
827.658449  	69.780553 
829.095356  	70.036415 
830.532263  	70.309471 
831.969170  	70.560285 
833.406077  	70.758860 
834.842984  	71.012588 
836.279891  	71.308537 
837.716798  	71.581767 
839.153705  	71.857727 
840.590612  	72.105630 
842.027519  	72.340765 
843.464426  	72.621587 
844.901333  	72.897346 
846.338240  	73.137817 
847.775147  	73.384530 
849.212054  	73.649128 
850.648961  	73.906439 
852.085868  	74.152887 
853.522775  	74.408734 
854.959682  	74.667551 
856.396589  	74.941901 
857.833496  	75.222485 
859.270403  	75.443706 
860.707310  	75.655404 
862.144217  	75.925535 
863.581124  	76.188581 
865.018031  	76.409728 
866.454938  	76.633662 
867.891845  	76.907712 
869.328752  	77.196476 
870.765660  	77.419177 
872.202567  	77.631005 
873.639474  	77.872325 
875.076381  	78.095717 
876.513288  	78.325356 
877.950195  	78.543320 
879.387102  	78.757650 
880.824009  	79.027067 
882.260916  	79.258731 
883.697823  	79.445179 
885.134730  	79.669575 
886.571637  	79.882840 
888.008544  	80.097961 
889.445451  	80.335603 
890.882358  	80.546677 
892.319265  	80.756108 
893.756172  	80.965759 
895.193079  	81.170122 
896.629986  	81.364287 
898.066893  	81.526916 
899.503800  	81.721219 
900.940707  	81.920631 
902.377614  	82.087145 
903.814521  	82.296412 
905.251428  	82.487665 
906.688335  	82.644992 
908.125242  	82.836317 
909.562149  	82.999629 
910.999056  	83.184960 
912.435963  	83.406059 
913.872870  	83.547810 
915.309777  	83.702415 
916.746684  	83.905318 
918.183591  	84.075106 
919.620498  	84.259252 
921.057406  	84.437672 
922.494313  	84.585195 
923.931220  	84.729448 
925.368127  	84.857169 
926.805034  	85.037567 
928.241941  	85.242903 
929.678848  	85.357958 
931.115755  	85.447531 
932.552662  	85.577030 
933.989569  	85.729939 
935.426476  	85.869394 
936.863383  	85.965918 
938.300290  	86.083660 
939.737197  	86.217839 
941.174104  	86.323410 
942.611011  	86.448626 
944.047918  	86.565053 
945.484825  	86.657615 
946.921732  	86.778484 
948.358639  	86.895924 
949.795546  	87.002676 
951.232453  	87.119478 
952.669360  	87.238392 
954.106267  	87.350436 
955.543174  	87.428192 
956.980081  	87.515994 
958.416988  	87.630588 
959.853895  	87.711515 
961.290802  	87.797796 
962.727709  	87.901740 
964.164616  	87.990338 
965.601523  	88.077059 
967.038430  	88.132958 
968.475337  	88.204381 
969.912244  	88.314375 
971.349152  	88.378767 
972.786059  	88.453267 
974.222966  	88.544903 
975.659873  	88.584884 
977.096780  	88.663005 
978.533687  	88.766039 
979.970594  	88.810166 
981.407501  	88.842818 
982.844408  	88.880143 
984.281315  	88.937024 
985.718222  	89.026001 
987.155129  	89.107284 
988.592036  	89.178331 
990.028943  	89.221997 
991.465850  	89.252070 
992.902757  	89.301461 
994.339664  	89.341941 
995.776571  	89.395044 
997.213478  	89.453042 
998.650385  	89.479146 
1000.087292  	89.512138 
1001.524199  	89.544139 
1002.961106  	89.600409 
1004.398013  	89.700909 
1005.834920  	89.743376 
1007.271827  	89.753568 
1008.708734  	89.790954 
1010.145641  	89.814406 
1011.582548  	89.857178 
1013.019455  	89.907685 
1014.456362  	89.931584 
1015.893269  	89.965011 
1017.330176  	89.989412 
1018.767083  	90.028451 
1020.203991  	90.090626 
1021.640898  	90.114174 
1023.077805  	90.139006 
1024.514712  	90.172106 
1025.951619  	90.181811 
1027.388526  	90.204538 
1028.825433  	90.232964 
1030.262340  	90.268758 
1031.699247  	90.302301 
1033.136154  	90.308589 
1034.573061  	90.325649 
1036.009968  	90.323670 
1037.446875  	90.318852 
1038.883782  	90.369766 
1040.320689  	90.402734 
1041.757596  	90.446947 
1043.194503  	90.517134 
1044.631410  	90.497520 
1046.068317  	90.474864 
1047.505224  	90.521294 
1048.942131  	90.558468 
1050.379038  	90.580350 
1051.815945  	90.581553 
1053.252852  	90.603580 
1054.689759  	90.645240 
1056.126666  	90.629890 
1057.563573  	90.649748 
1059.000480  	90.701744 
1060.437387  	90.698798 
1061.874294  	90.730465 
1063.311201  	90.766704 
1064.748108  	90.761526 
1066.185015  	90.779081 
1067.621922  	90.782029 
1069.058829  	90.790548 
1070.495737  	90.802114 
1071.932644  	90.773754 
1073.369551  	90.789840 
1074.806458  	90.808239 
1076.243365  	90.802471 
1077.680272  	90.843484 
1079.117179  	90.843527 
1080.554086  	90.832046 
1081.990993  	90.872415 
1083.427900  	90.871356 
1084.864807  	90.870303 
1086.301714  	90.877914 
1087.738621  	90.846243 
1089.175528  	90.843323 
1090.612435  	90.852621 
1092.049342  	90.871181 
1093.486249  	90.904700 
1094.923156  	90.882117 
1096.360063  	90.866532 
1097.796970  	90.887765 
1099.233877  	90.902088 
1100.670784  	90.937598 
1102.107691  	90.960628 
1103.544598  	90.970599 
1104.981505  	90.980450 
1106.418412  	90.962603 
1107.855319  	90.983151 
1109.292226  	91.013224 
1110.729133  	91.022540 
1112.166040  	91.074326 
1113.602947  	91.078880 
1115.039854  	91.053288 
1116.476761  	91.078616 
1117.913668  	91.061439 
1119.350575  	91.056560 
1120.787483  	91.094808 
1122.224390  	91.082205 
1123.661297  	91.090496 
1125.098204  	91.105467 
1126.535111  	91.088291 
1127.972018  	91.124816 
1129.408925  	91.158989 
1130.845832  	91.163398 
1132.282739  	91.169501 
1133.719646  	91.138011 
1135.156553  	91.116748 
1136.593460  	91.102447 
1138.030367  	91.071106 
1139.467274  	91.086969 
1140.904181  	91.109055 
1142.341088  	91.120053 
1143.777995  	91.142147 
1145.214902  	91.128731 
1146.651809  	91.121257 
1148.088716  	91.123597 
1149.525623  	91.096259 
1150.962530  	91.087829 
1152.399437  	91.082064 
1153.836344  	91.074456 
1155.273251  	91.090373 
1156.710158  	91.086543 
1158.147065  	91.076488 
1159.583972  	91.068015 
1161.020879  	91.068996 
1162.457786  	91.108203 
1163.894693  	91.100093 
1165.331600  	91.058982 
1166.768507  	91.068794 
1168.205414  	91.068079 
1169.642322  	91.066230 
1171.079229  	91.081402 
1172.516136  	91.055059 
1173.953043  	91.040348 
1175.389950  	91.057919 
1176.826857  	91.067311 
1178.263764  	91.080554 
1179.700671  	91.083656 
1181.137578  	91.075228 
1182.574485  	91.059216 
1184.011392  	91.044854 
1185.448299  	91.060065 
1186.885206  	91.063114 
1188.322113  	91.064817 
1189.759020  	91.084316 
1191.195927  	91.057325 
1192.632834  	91.042757 
1194.069741  	91.067887 
1195.506648  	91.055901 
1196.943555  	91.053059 
1198.380462  	91.061037 
1199.817369  	91.036741 
1201.254276  	91.015937 
1202.691183  	90.989135 
1204.128090  	90.988484 
1205.564997  	91.019902 
1207.001904  	91.002923 
1208.438811  	90.987356 
1209.875718  	91.008067 
1211.312625  	91.020735 
1212.749532  	91.030034 
1214.186439  	91.005462 
1215.623346  	90.978666 
1217.060253  	90.997255 
1218.497160  	91.000704 
1219.934068  	91.000818 
1221.370975  	91.006050 
1222.807882  	90.985408 
1224.244789  	90.983902 
1225.681696  	90.981965 
1227.118603  	90.973295 
1228.555510  	90.991660 
1229.992417  	90.978084 
1231.429324  	90.956366 
1232.866231  	90.971323 
1234.303138  	90.971101 
1235.740045  	90.964872 
1237.176952  	90.955790 
1238.613859  	90.938299 
1240.050766  	90.945179 
1241.487673  	90.943178 
1242.924580  	90.922909 
1244.361487  	90.906411 
1245.798394  	90.892027 
1247.235301  	90.892280 
1248.672208  	90.870369 
1250.109115  	90.836332 
1251.546022  	90.848836 
1252.982929  	90.860957 
1254.419836  	90.855731 
1255.856743  	90.848957 
1257.293650  	90.818859 
1258.730557  	90.802355 
1260.167464  	90.801340 
1261.604371  	90.801631 
1263.041278  	90.820362 
1264.478185  	90.815996 
1265.915092  	90.805239 
1267.351999  	90.806851 
1268.788907  	90.779179 
1270.225814  	90.766202 
1271.662721  	90.763638 
1273.099628  	90.744502 
1274.536535  	90.753490 
1275.973442  	90.739428 
1277.410349  	90.707279 
1278.847256  	90.721949 
1280.284163  	90.723126 
1281.721070  	90.723460 
1283.157977  	90.762584 
1284.594884  	90.790386 
1286.031791  	90.804499 
1287.468698  	90.791232 
1288.905605  	90.774756 
1290.342512  	90.806496 
1291.779419  	90.820488 
1293.216326  	90.816745 
1294.653233  	90.830376 
1296.090140  	90.825196 
1297.527047  	90.838711 
1298.963954  	90.875315 
1300.400861  	90.892609 
1301.837768  	90.908433 
1303.274675  	90.912985 
1304.711582  	90.921672 
1306.148489  	90.947164 
1307.585396  	90.947140 
1309.022303  	90.955880 
1310.459210  	90.956334 
1311.896117  	90.945589 
1313.333024  	90.940111 
1314.769931  	90.939293 
1316.206838  	90.948506 
1317.643745  	90.947546 
1319.080653  	90.931371 
1320.517560  	90.938468 
1321.954467  	90.968922 
1323.391374  	90.979057 
1324.828281  	90.978361 
1326.265188  	90.966775 
1327.702095  	90.940784 
1329.139002  	90.947331 
1330.575909  	90.972109 
1332.012816  	90.982275 
1333.449723  	90.961085 
1334.886630  	90.937612 
1336.323537  	90.910726 
1337.760444  	90.856139 
1339.197351  	90.787306 
1340.634258  	90.792243 
1342.071165  	90.816472 
1343.508072  	90.817648 
1344.944979  	90.799575 
1346.381886  	90.779587 
1347.818793  	90.779554 
1349.255700  	90.772410 
1350.692607  	90.749242 
1352.129514  	90.732332 
1353.566421  	90.698040 
1355.003328  	90.697835 
1356.440235  	90.702554 
1357.877142  	90.676452 
1359.314049  	90.647818 
1360.750956  	90.616435 
1362.187863  	90.542342 
1363.624770  	90.474497 
1365.061677  	90.467815 
1366.498584  	90.470685 
1367.935491  	90.416169 
1369.372399  	90.340812 
1370.809306  	90.317918 
1372.246213  	90.294714 
1373.683120  	90.199728 
1375.120027  	90.088193 
1376.556934  	90.029490 
1377.993841  	89.986597 
1379.430748  	89.968787 
1380.867655  	89.971329 
1382.304562  	89.969514 
1383.741469  	89.939480 
1385.178376  	89.912480 
1386.615283  	89.884692 
1388.052190  	89.831308 
1389.489097  	89.827081 
1390.926004  	89.833420 
1392.362911  	89.827748 
1393.799818  	89.806461 
1395.236725  	89.769648 
1396.673632  	89.793620 
1398.110539  	89.861085 
1399.547446  	89.894203 
1400.984353  	89.906719 
1402.421260  	89.953843 
1403.858167  	89.996519 
1405.295074  	90.021753 
1406.731981  	90.041605 
1408.168888  	90.059951 
1409.605795  	90.118650 
1411.042702  	90.180917 
1412.479609  	90.200403 
1413.916516  	90.263078 
1415.353423  	90.315857 
1416.790330  	90.333130 
1418.227238  	90.367802 
1419.664145  	90.380070 
1421.101052  	90.386402 
1422.537959  	90.368292 
1423.974866  	90.358562 
1425.411773  	90.383830 
1426.848680  	90.417389 
1428.285587  	90.490047 
1429.722494  	90.561048 
1431.159401  	90.559442 
1432.596308  	90.550211 
1434.033215  	90.571331 
1435.470122  	90.546959 
1436.907029  	90.428502 
1438.343936  	90.477486 
1439.780843  	90.578302 
1441.217750  	90.622751 
1442.654657  	90.635058 
1444.091564  	90.661147 
1445.528471  	90.621691 
1446.965378  	90.587363 
1448.402285  	90.671906 
1449.839192  	90.693010 
1451.276099  	90.710548 
1452.713006  	90.755031 
1454.149913  	90.696321 
1455.586820  	90.692505 
1457.023727  	90.678551 
1458.460634  	90.640088 
1459.897541  	90.535825 
1461.334448  	90.374797 
1462.771355  	90.327117 
1464.208262  	90.392805 
1465.645169  	90.434994 
1467.082076  	90.557034 
1468.518984  	90.667470 
1469.955891  	90.613917 
1471.392798  	90.470813 
1472.829705  	90.255995 
1474.266612  	90.276336 
1475.703519  	90.303210 
1477.140426  	90.224727 
1478.577333  	90.224703 
1480.014240  	90.249707 
1481.451147  	90.298488 
1482.888054  	90.475058 
1484.324961  	90.518202 
1485.761868  	90.438758 
1487.198775  	90.403627 
1488.635682  	90.329675 
1490.072589  	90.233557 
1491.509496  	90.253463 
1492.946403  	90.205669 
1494.383310  	90.137830 
1495.820217  	90.059642 
1497.257124  	89.994384 
1498.694031  	90.029402 
1500.130938  	90.064673 
1501.567845  	90.037732 
1503.004752  	89.972566 
1504.441659  	89.911026 
1505.878566  	89.927545 
1507.315473  	89.786388 
1508.752380  	89.527404 
1510.189287  	89.433055 
1511.626194  	89.399710 
1513.063101  	89.378156 
1514.500008  	89.348760 
1515.936915  	89.326124 
1517.373822  	89.365323 
1518.810730  	89.295220 
1520.247637  	89.168967 
1521.684544  	89.036373 
1523.121451  	88.845563 
1524.558358  	88.751723 
1525.995265  	88.800190 
1527.432172  	88.732111 
1528.869079  	88.599333 
1530.305986  	88.560032 
1531.742893  	88.521544 
1533.179800  	88.471803 
1534.616707  	88.290806 
1536.053614  	88.193484 
1537.490521  	88.190095 
1538.927428  	88.040661 
1540.364335  	87.702457 
1541.801242  	87.594631 
1543.238149  	87.364755 
1544.675056  	87.197430 
1546.111963  	87.079306 
1547.548870  	86.937390 
1548.985777  	86.810419 
1550.422684  	86.711038 
1551.859591  	86.689862 
1553.296498  	86.612822 
1554.733405  	86.344855 
1556.170312  	86.166662 
1557.607219  	85.971146 
1559.044126  	84.871939 
1560.481033  	85.225285 
1561.917940  	85.272308 
1563.354847  	85.114621 
1564.791754  	84.972973 
1566.228661  	84.754372 
1567.665569  	84.750088 
1569.102476  	84.839411 
1570.539383  	84.615070 
1571.976290  	84.362828 
1573.413197  	84.081184 
1574.850104  	83.846650 
1576.287011  	83.640743 
1577.723918  	83.461770 
1579.160825  	83.403154 
1580.597732  	83.304780 
1582.034639  	83.065154 
1583.471546  	82.894895 
1584.908453  	82.749527 
1586.345360  	82.525909 
1587.782267  	82.364396 
1589.219174  	82.103063 
1590.656081  	81.814562 
1592.092988  	81.583425 
1593.529895  	81.231385 
1594.966802  	80.977560 
1596.403709  	80.689657 
1597.840616  	80.339565 
1599.277523  	80.169465 
1600.714430  	79.750652 
1602.151337  	79.281284 
1603.588244  	78.905149 
1605.025151  	78.439902 
1606.462058  	77.956518 
1607.898965  	77.515652 
1609.335872  	77.053627 
1610.772779  	76.634947 
1612.209686  	76.102786 
1613.646593  	75.580541 
1615.083500  	75.358016 
1616.520407  	74.901906 
1617.957315  	74.283904 
1619.394222  	73.822739 
1620.831129  	73.265815 
1622.268036  	72.857368 
1623.704943  	72.326090 
1625.141850  	71.801981 
1626.578757  	71.639688 
1628.015664  	71.393851 
1629.452571  	71.164326 
1630.889478  	71.031695 
1632.326385  	70.738736 
1633.763292  	70.587905 
1635.200199  	70.564207 
1636.637106  	70.557995 
1638.074013  	70.725960 
1639.510920  	70.636486 
1640.947827  	70.617684 
1642.384734  	70.787943 
1643.821641  	70.894026 
1645.258548  	71.251705 
1646.695455  	71.908381 
1648.132362  	72.159447 
1649.569269  	72.235392 
1651.006176  	72.271460 
1652.443083  	72.141991 
1653.879990  	72.790545 
1655.316897  	73.490744 
1656.753804  	73.862435 
1658.190711  	74.329576 
1659.627618  	74.564780 
1661.064525  	75.000366 
1662.501432  	75.657144 
1663.938339  	76.267948 
1665.375246  	76.724322 
1666.812154  	77.116882 
1668.249061  	77.526598 
1669.685968  	78.027312 
1671.122875  	78.502189 
1672.559782  	78.950469 
1673.996689  	79.345542 
1675.433596  	79.815175 
1676.870503  	80.512920 
1678.307410  	80.929880 
1679.744317  	81.311857 
1681.181224  	81.895506 
1682.618131  	82.283091 
1684.055038  	82.536576 
1685.491945  	83.279176 
1686.928852  	83.611298 
1688.365759  	83.947927 
1689.802666  	84.365161 
1691.239573  	84.872495 
1692.676480  	85.470770 
1694.113387  	85.897510 
1695.550294  	86.342951 
1696.987201  	86.819642 
1698.424108  	86.896547 
1699.861015  	87.100420 
1701.297922  	87.595452 
1702.734829  	87.768678 
1704.171736  	87.989764 
1705.608643  	88.271510 
1707.045550  	88.660956 
1708.482457  	89.143443 
1709.919364  	89.556093 
1711.356271  	89.915089 
1712.793178  	90.201293 
1714.230085  	90.389753 
1715.666992  	90.706280 
1717.103900  	90.910931 
1718.540807  	91.024545 
1719.977714  	91.417545 
1721.414621  	91.583234 
1722.851528  	91.745043 
1724.288435  	92.108844 
1725.725342  	92.463607 
1727.162249  	92.812658 
1728.599156  	93.043064 
1730.036063  	93.149256 
1731.472970  	93.223058 
1732.909877  	93.275343 
1734.346784  	93.396671 
1735.783691  	93.580189 
1737.220598  	93.565117 
1738.657505  	93.696700 
1740.094412  	93.934358 
1741.531319  	94.013740 
1742.968226  	94.167967 
1744.405133  	94.363865 
1745.842040  	94.439584 
1747.278947  	94.444469 
1748.715854  	94.436813 
1750.152761  	94.549445 
1751.589668  	94.614119 
1753.026575  	94.751995 
1754.463482  	95.028015 
1755.900389  	95.151078 
1757.337296  	95.148810 
1758.774203  	95.302834 
1760.211110  	95.394274 
1761.648017  	95.435082 
1763.084924  	95.546140 
1764.521831  	95.605302 
1765.958738  	95.713126 
1767.395646  	95.801104 
1768.832553  	95.810236 
1770.269460  	95.879118 
1771.706367  	95.897557 
1773.143274  	95.927210 
1774.580181  	95.969851 
1776.017088  	95.935697 
1777.453995  	96.043763 
1778.890902  	96.132848 
1780.327809  	96.105838 
1781.764716  	96.217457 
1783.201623  	96.347330 
1784.638530  	96.406430 
1786.075437  	96.464105 
1787.512344  	96.466035 
1788.949251  	96.480211 
1790.386158  	96.519685 
1791.823065  	96.554028 
1793.259972  	96.640296 
1794.696879  	96.617793 
1796.133786  	96.605102 
1797.570693  	96.655858 
1799.007600  	96.640326 
1800.444507  	96.666296 
1801.881414  	96.738716 
1803.318321  	96.751566 
1804.755228  	96.811281 
1806.192135  	96.845152 
1807.629042  	96.869315 
1809.065949  	96.944634 
1810.502856  	96.990204 
1811.939763  	97.089979 
1813.376670  	97.136223 
1814.813577  	97.111798 
1816.250485  	97.165962 
1817.687392  	97.169399 
1819.124299  	97.141785 
1820.561206  	97.226156 
1821.998113  	97.271786 
1823.435020  	97.273899 
1824.871927  	97.286527 
1826.308834  	97.231685 
1827.745741  	97.250611 
1829.182648  	97.252662 
1830.619555  	97.199659 
1832.056462  	97.231724 
1833.493369  	97.203640 
1834.930276  	97.235371 
1836.367183  	97.334625 
1837.804090  	97.345182 
1839.240997  	97.416839 
1840.677904  	97.478070 
1842.114811  	97.415972 
1843.551718  	97.383457 
1844.988625  	97.224383 
1846.425532  	97.150578 
1847.862439  	97.222591 
1849.299346  	97.227641 
1850.736253  	97.305508 
1852.173160  	97.398732 
1853.610067  	97.430218 
1855.046974  	97.506807 
1856.483881  	97.470554 
1857.920788  	97.402902 
1859.357695  	97.457185 
1860.794602  	97.464532 
1862.231509  	97.471448 
1863.668416  	97.490238 
1865.105323  	97.478706 
1866.542231  	97.534063 
1867.979138  	97.498837 
1869.416045  	97.422054 
1870.852952  	97.455441 
1872.289859  	97.407867 
1873.726766  	97.439440 
1875.163673  	97.496409 
1876.600580  	97.406472 
1878.037487  	97.499290 
1879.474394  	97.580115 
1880.911301  	97.520337 
1882.348208  	97.527152 
1883.785115  	97.483254 
1885.222022  	97.531731 
1886.658929  	97.639401 
1888.095836  	97.607456 
1889.532743  	97.604310 
1890.969650  	97.580240 
1892.406557  	97.571201 
1893.843464  	97.629952 
1895.280371  	97.593520 
1896.717278  	97.577171 
1898.154185  	97.600265 
1899.591092  	97.563036 
1901.027999  	97.607499 
1902.464906  	97.584949 
1903.901813  	97.582165 
1905.338720  	97.697679 
1906.775627  	97.579879 
1908.212534  	97.567278 
1909.649441  	97.736118 
1911.086348  	97.643888 
1912.523255  	97.653838 
1913.960162  	97.734969 
1915.397069  	97.673278 
1916.833977  	97.744200 
1918.270884  	97.767204 
1919.707791  	97.754702 
1921.144698  	97.764385 
1922.581605  	97.618454 
1924.018512  	97.617551 
1925.455419  	97.692575 
1926.892326  	97.698561 
1928.329233  	97.731183 
1929.766140  	97.762730 
1931.203047  	97.726857 
1932.639954  	97.734194 
1934.076861  	97.672899 
1935.513768  	97.664701 
1936.950675  	97.641839 
1938.387582  	97.564740 
1939.824489  	97.586016 
1941.261396  	97.646729 
1942.698303  	97.605385 
1944.135210  	97.608959 
1945.572117  	97.553390 
1947.009024  	97.614586 
1948.445931  	97.698099 
1949.882838  	97.543549 
1951.319745  	97.618348 
1952.756652  	97.755246 
1954.193559  	97.759631 
1955.630466  	97.832442 
1957.067373  	97.748715 
1958.504280  	97.741744 
1959.941187  	97.758588 
1961.378094  	97.645563 
1962.815001  	97.706138 
1964.251908  	97.660000 
1965.688816  	97.520318 
1967.125723  	97.612676 
1968.562630  	97.469912 
1969.999537  	97.374396 
1971.436444  	97.503158 
1972.873351  	97.297392 
1974.310258  	97.274200 
1975.747165  	97.397011 
1977.184072  	97.210061 
1978.620979  	97.024734 
1980.057886  	96.823751 
1981.494793  	96.790314 
1982.931700  	96.789631 
1984.368607  	96.600039 
1985.805514  	96.743379 
1987.242421  	96.845727 
1988.679328  	96.674616 
1990.116235  	96.841969 
1991.553142  	96.863292 
1992.990049  	96.784689 
1994.426956  	96.913661 
1995.863863  	96.813511 
1997.300770  	96.822814 
1998.737677  	96.827751 
2000.174584  	96.687372 
2001.611491  	97.119828 
2003.048398  	97.010215 
2004.485305  	96.552848 
2005.922212  	96.909915 
2007.359119  	96.794781 
2008.796026  	96.529635 
2010.232933  	96.822849 
2011.669840  	96.683595 
2013.106747  	96.694360 
2014.543654  	96.720379 
2015.980562  	96.318468 
2017.417469  	96.307045 
2018.854376  	96.274726 
2020.291283  	96.230168 
2021.728190  	96.458153 
2023.165097  	96.266940 
2024.602004  	96.149455 
2026.038911  	96.091773 
2027.475818  	95.779539 
2028.912725  	95.835721 
2030.349632  	95.791872 
2031.786539  	95.597404 
2033.223446  	95.694255 
2034.660353  	95.613322 
2036.097260  	95.535640 
2037.534167  	95.376381 
2038.971074  	95.117011 
2040.407981  	95.350943 
2041.844888  	95.627064 
2043.281795  	95.682326 
2044.718702  	95.552161 
2046.155609  	95.111194 
2047.592516  	95.054309 
2049.029423  	95.161427 
2050.466330  	95.019713 
2051.903237  	95.220354 
2053.340144  	95.425743 
2054.777051  	95.397090 
2056.213958  	95.434772 
2057.650865  	95.389516 
2059.087772  	95.439614 
2060.524679  	95.521618 
2061.961586  	95.412741 
2063.398493  	95.407701 
2064.835401  	95.309477 
2066.272308  	95.174644 
2067.709215  	95.291798 
2069.146122  	95.282455 
2070.583029  	95.248273 
2072.019936  	95.278226 
2073.456843  	95.182971 
2074.893750  	95.309516 
2076.330657  	95.495428 
2077.767564  	95.435168 
2079.204471  	95.368347 
2080.641378  	95.328239 
2082.078285  	95.380305 
2083.515192  	95.473276 
2084.952099  	95.478175 
2086.389006  	95.553035 
2087.825913  	95.534872 
2089.262820  	95.486010 
2090.699727  	95.601579 
2092.136634  	95.552512 
2093.573541  	95.484687 
2095.010448  	95.542234 
2096.447355  	95.463687 
2097.884262  	95.490400 
2099.321169  	95.577132 
2100.758076  	95.558028 
2102.194983  	95.599614 
2103.631890  	95.513312 
2105.068797  	95.470537 
2106.505704  	95.644542 
2107.942611  	95.676362 
2109.379518  	95.722753 
2110.816425  	95.810432 
2112.253332  	95.690604 
2113.690239  	95.599834 
2115.127147  	95.613675 
2116.564054  	95.696217 
2118.000961  	95.802646 
2119.437868  	95.811711 
2120.874775  	95.973289 
2122.311682  	96.150508 
2123.748589  	96.069232 
2125.185496  	96.042578 
2126.622403  	96.061694 
2128.059310  	96.095288 
2129.496217  	96.323549 
2130.933124  	96.493885 
2132.370031  	96.517567 
2133.806938  	96.393148 
2135.243845  	96.277849 
2136.680752  	96.463898 
2138.117659  	96.467115 
2139.554566  	96.254622 
2140.991473  	96.257993 
2142.428380  	96.219852 
2143.865287  	96.235964 
2145.302194  	96.281016 
2146.739101  	96.144665 
2148.176008  	96.298672 
2149.612915  	96.537092 
2151.049822  	96.605957 
2152.486729  	96.522559 
2153.923636  	95.986347 
2155.360543  	95.892391 
2156.797450  	96.376868 
2158.234357  	96.149010 
2159.671264  	95.855523 
2161.108171  	95.861951 
2162.545078  	95.574210 
2163.981985  	95.343946 
2165.418893  	95.293847 
2166.855800  	95.625341 
2168.292707  	95.847118 
2169.729614  	95.390480 
2171.166521  	95.296157 
2172.603428  	95.615499 
2174.040335  	95.596420 
2175.477242  	95.536611 
2176.914149  	95.359296 
2178.351056  	95.334546 
2179.787963  	95.803352 
2181.224870  	95.923669 
2182.661777  	95.607752 
2184.098684  	95.355055 
2185.535591  	95.342523 
2186.972498  	95.526767 
2188.409405  	95.465844 
2189.846312  	95.408469 
2191.283219  	95.540541 
2192.720126  	95.435786 
2194.157033  	95.460244 
2195.593940  	95.612561 
2197.030847  	95.545809 
2198.467754  	95.664109 
2199.904661  	95.775748 
2201.341568  	95.669607 
2202.778475  	95.594366 
2204.215382  	95.481342 
2205.652289  	95.568159 
2207.089196  	95.777058 
2208.526103  	95.729027 
2209.963010  	95.700170 
2211.399917  	95.680308 
2212.836824  	95.661423 
2214.273732  	95.783791 
2215.710639  	95.742110 
2217.147546  	95.676518 
2218.584453  	95.704940 
2220.021360  	95.696259 
2221.458267  	95.846894 
2222.895174  	95.852101 
2224.332081  	95.638055 
2225.768988  	95.633183 
2227.205895  	95.647307 
2228.642802  	95.649721 
2230.079709  	95.723033 
2231.516616  	95.680461 
2232.953523  	95.788627 
2234.390430  	96.003132 
2235.827337  	95.968289 
2237.264244  	95.822595 
2238.701151  	95.746170 
2240.138058  	95.842897 
2241.574965  	95.984077 
2243.011872  	95.998998 
2244.448779  	96.036712 
2245.885686  	95.978909 
2247.322593  	95.851104 
2248.759500  	95.856639 
2250.196407  	95.842559 
2251.633314  	95.985564 
2253.070221  	96.208902 
2254.507128  	96.153389 
2255.944035  	96.148466 
2257.380942  	96.249588 
2258.817849  	96.202891 
2260.254756  	96.168446 
2261.691663  	96.149203 
2263.128570  	96.175711 
2264.565478  	96.263034 
2266.002385  	96.259567 
2267.439292  	96.310992 
2268.876199  	96.349181 
2270.313106  	96.262993 
2271.750013  	96.280197 
2273.186920  	96.303964 
2274.623827  	96.288733 
2276.060734  	96.354887 
2277.497641  	96.380309 
2278.934548  	96.413874 
2280.371455  	96.431722 
2281.808362  	96.368067 
2283.245269  	96.394208 
2284.682176  	96.433097 
2286.119083  	96.413213 
2287.555990  	96.454845 
2288.992897  	96.485898 
2290.429804  	96.510660 
2291.866711  	96.553670 
2293.303618  	96.550786 
2294.740525  	96.582641 
2296.177432  	96.653196 
2297.614339  	96.694136 
2299.051246  	96.730526 
2300.488153  	96.780549 
2301.925060  	96.873151 
2303.361967  	96.905593 
2304.798874  	96.817200 
2306.235781  	96.788748 
2307.672688  	96.821665 
2309.109595  	96.847744 
2310.546502  	96.886982 
2311.983409  	96.898811 
2313.420317  	96.960115 
2314.857224  	97.028873 
2316.294131  	96.967450 
2317.731038  	96.921122 
2319.167945  	96.930523 
2320.604852  	96.910396 
2322.041759  	96.871823 
2323.478666  	96.786603 
2324.915573  	96.782567 
2326.352480  	96.892369 
2327.789387  	96.939694 
2329.226294  	96.964270 
2330.663201  	96.999258 
2332.100108  	96.974677 
2333.537015  	96.990774 
2334.973922  	97.036485 
2336.410829  	97.069645 
2337.847736  	97.146855 
2339.284643  	97.195184 
2340.721550  	97.143302 
2342.158457  	97.011727 
2343.595364  	96.909134 
2345.032271  	96.907063 
2346.469178  	96.932024 
2347.906085  	96.975411 
2349.342992  	97.072049 
2350.779899  	97.259262 
2352.216806  	97.537469 
2353.653713  	97.749457 
2355.090620  	97.829040 
2356.527527  	97.882741 
2357.964434  	97.758858 
2359.401341  	97.448190 
2360.838248  	97.212772 
2362.275155  	97.096126 
2363.712063  	97.056313 
2365.148970  	97.024307 
2366.585877  	96.966245 
2368.022784  	96.956715 
2369.459691  	96.873204 
2370.896598  	96.775166 
2372.333505  	96.791675 
2373.770412  	96.772510 
2375.207319  	96.781924 
2376.644226  	96.887921 
2378.081133  	96.962455 
2379.518040  	97.061829 
2380.954947  	97.202116 
2382.391854  	97.310594 
2383.828761  	97.400337 
2385.265668  	97.486396 
2386.702575  	97.605063 
2388.139482  	97.721869 
2389.576389  	97.789691 
2391.013296  	97.846755 
2392.450203  	97.901275 
2393.887110  	97.947086 
2395.324017  	97.975972 
2396.760924  	97.957816 
2398.197831  	97.995811 
2399.634738  	98.074717 
2401.071645  	98.064796 
2402.508552  	98.073409 
2403.945459  	98.117884 
2405.382366  	98.101849 
2406.819273  	98.110951 
2408.256180  	98.126958 
2409.693087  	98.094844 
2411.129994  	98.097658 
2412.566901  	98.119199 
2414.003809  	98.119291 
2415.440716  	98.120598 
2416.877623  	98.129054 
2418.314530  	98.154334 
2419.751437  	98.177460 
2421.188344  	98.182599 
2422.625251  	98.171688 
2424.062158  	98.152067 
2425.499065  	98.152169 
2426.935972  	98.152249 
2428.372879  	98.146488 
2429.809786  	98.148155 
2431.246693  	98.147645 
2432.683600  	98.183604 
2434.120507  	98.203231 
2435.557414  	98.166479 
2436.994321  	98.182099 
2438.431228  	98.202626 
2439.868135  	98.177929 
2441.305042  	98.186100 
2442.741949  	98.181715 
2444.178856  	98.175985 
2445.615763  	98.182375 
2447.052670  	98.147799 
2448.489577  	98.174710 
2449.926484  	98.207555 
2451.363391  	98.151815 
2452.800298  	98.157309 
2454.237205  	98.167887 
2455.674112  	98.120772 
2457.111019  	98.166802 
2458.547926  	98.234643 
2459.984833  	98.245873 
2461.421740  	98.269803 
2462.858648  	98.284031 
2464.295555  	98.281995 
2465.732462  	98.273113 
2467.169369  	98.285484 
2468.606276  	98.350719 
2470.043183  	98.375424 
2471.480090  	98.354566 
2472.916997  	98.345357 
2474.353904  	98.317855 
2475.790811  	98.316615 
2477.227718  	98.350103 
2478.664625  	98.355893 
2480.101532  	98.361292 
2481.538439  	98.389645 
2482.975346  	98.428349 
2484.412253  	98.423400 
2485.849160  	98.363923 
2487.286067  	98.371140 
2488.722974  	98.435410 
2490.159881  	98.460529 
2491.596788  	98.475386 
2493.033695  	98.458291 
2494.470602  	98.381681 
2495.907509  	98.337120 
2497.344416  	98.381762 
2498.781323  	98.446415 
2500.218230  	98.447560 
2501.655137  	98.443025 
2503.092044  	98.473309 
2504.528951  	98.453711 
2505.965858  	98.415813 
2507.402765  	98.427226 
2508.839672  	98.458693 
2510.276579  	98.478578 
2511.713486  	98.445852 
2513.150394  	98.412570 
2514.587301  	98.436880 
2516.024208  	98.455431 
2517.461115  	98.474972 
2518.898022  	98.466950 
2520.334929  	98.407863 
2521.771836  	98.442853 
2523.208743  	98.528589 
2524.645650  	98.538797 
2526.082557  	98.528323 
2527.519464  	98.496755 
2528.956371  	98.476656 
2530.393278  	98.504518 
2531.830185  	98.509604 
2533.267092  	98.531267 
2534.703999  	98.548608 
2536.140906  	98.484904 
2537.577813  	98.431438 
2539.014720  	98.426173 
2540.451627  	98.449739 
2541.888534  	98.469574 
2543.325441  	98.432721 
2544.762348  	98.441948 
2546.199255  	98.501549 
2547.636162  	98.492241 
2549.073069  	98.470819 
2550.509976  	98.455559 
2551.946883  	98.417658 
2553.383790  	98.415149 
2554.820697  	98.440654 
2556.257604  	98.458757 
2557.694511  	98.442998 
2559.131418  	98.425162 
2560.568325  	98.461357 
2562.005232  	98.465150 
2563.442140  	98.436548 
2564.879047  	98.429742 
2566.315954  	98.386337 
2567.752861  	98.402848 
2569.189768  	98.479321 
2570.626675  	98.436157 
2572.063582  	98.381333 
2573.500489  	98.397799 
2574.937396  	98.364315 
2576.374303  	98.334782 
2577.811210  	98.374703 
2579.248117  	98.408995 
2580.685024  	98.395888 
2582.121931  	98.372313 
2583.558838  	98.379236 
2584.995745  	98.371897 
2586.432652  	98.346016 
2587.869559  	98.343254 
2589.306466  	98.320109 
2590.743373  	98.292570 
2592.180280  	98.291876 
2593.617187  	98.276150 
2595.054094  	98.258676 
2596.491001  	98.247173 
2597.927908  	98.255059 
2599.364815  	98.289079 
2600.801722  	98.278562 
2602.238629  	98.261272 
2603.675536  	98.277902 
2605.112443  	98.269396 
2606.549350  	98.259892 
2607.986257  	98.235445 
2609.423164  	98.191557 
2610.860071  	98.215532 
2612.296979  	98.247118 
2613.733886  	98.235070 
2615.170793  	98.244056 
2616.607700  	98.258880 
2618.044607  	98.255101 
2619.481514  	98.227890 
2620.918421  	98.205780 
2622.355328  	98.220621 
2623.792235  	98.196398 
2625.229142  	98.167092 
2626.666049  	98.212331 
2628.102956  	98.233896 
2629.539863  	98.211544 
2630.976770  	98.193096 
2632.413677  	98.165420 
2633.850584  	98.164967 
2635.287491  	98.182176 
2636.724398  	98.206873 
2638.161305  	98.269149 
2639.598212  	98.302360 
2641.035119  	98.297525 
2642.472026  	98.297785 
2643.908933  	98.283080 
2645.345840  	98.284489 
2646.782747  	98.306779 
2648.219654  	98.320130 
2649.656561  	98.344145 
2651.093468  	98.358893 
2652.530375  	98.365181 
2653.967282  	98.381966 
2655.404189  	98.394120 
2656.841096  	98.430771 
2658.278003  	98.459993 
2659.714910  	98.439856 
2661.151817  	98.453069 
2662.588725  	98.504614 
2664.025632  	98.525127 
2665.462539  	98.529621 
2666.899446  	98.545521 
2668.336353  	98.573220 
2669.773260  	98.589093 
2671.210167  	98.587267 
2672.647074  	98.600075 
2674.083981  	98.610974 
2675.520888  	98.609492 
2676.957795  	98.610848 
2678.394702  	98.602148 
2679.831609  	98.604086 
2681.268516  	98.616230 
2682.705423  	98.614997 
2684.142330  	98.623393 
2685.579237  	98.622704 
2687.016144  	98.607112 
2688.453051  	98.611780 
2689.889958  	98.612856 
2691.326865  	98.613568 
2692.763772  	98.623016 
2694.200679  	98.604802 
2695.637586  	98.587011 
2697.074493  	98.588268 
2698.511400  	98.573909 
2699.948307  	98.549163 
2701.385214  	98.534385 
2702.822121  	98.543066 
2704.259028  	98.567691 
2705.695935  	98.578875 
2707.132842  	98.567306 
2708.569749  	98.540307 
2710.006656  	98.530388 
2711.443564  	98.534290 
2712.880471  	98.515216 
2714.317378  	98.507919 
2715.754285  	98.516333 
2717.191192  	98.506523 
2718.628099  	98.501562 
2720.065006  	98.482257 
2721.501913  	98.456167 
2722.938820  	98.469927 
2724.375727  	98.473939 
2725.812634  	98.466086 
2727.249541  	98.467684 
2728.686448  	98.430634 
2730.123355  	98.397573 
2731.560262  	98.396773 
2732.997169  	98.382556 
2734.434076  	98.377066 
2735.870983  	98.382599 
2737.307890  	98.390810 
2738.744797  	98.409676 
2740.181704  	98.387744 
2741.618611  	98.340696 
2743.055518  	98.321990 
2744.492425  	98.305473 
2745.929332  	98.280555 
2747.366239  	98.260338 
2748.803146  	98.255519 
2750.240053  	98.266681 
2751.676960  	98.260771 
2753.113867  	98.241742 
2754.550774  	98.226672 
2755.987681  	98.215012 
2757.424588  	98.214372 
2758.861495  	98.197567 
2760.298402  	98.169870 
2761.735310  	98.163635 
2763.172217  	98.152610 
2764.609124  	98.135664 
2766.046031  	98.117232 
2767.482938  	98.091776 
2768.919845  	98.091954 
2770.356752  	98.086934 
2771.793659  	98.055577 
2773.230566  	98.038896 
2774.667473  	98.019602 
2776.104380  	98.007506 
2777.541287  	98.011231 
2778.978194  	97.980080 
2780.415101  	97.949628 
2781.852008  	97.938357 
2783.288915  	97.912086 
2784.725822  	97.908593 
2786.162729  	97.909980 
2787.599636  	97.876022 
2789.036543  	97.852603 
2790.473450  	97.847224 
2791.910357  	97.833229 
2793.347264  	97.804359 
2794.784171  	97.770849 
2796.221078  	97.757571 
2797.657985  	97.746591 
2799.094892  	97.728730 
2800.531799  	97.721223 
2801.968706  	97.703654 
2803.405613  	97.677837 
2804.842520  	97.649985 
2806.279427  	97.614000 
2807.716334  	97.596356 
2809.153241  	97.586600 
2810.590148  	97.574030 
2812.027056  	97.563770 
2813.463963  	97.515151 
2814.900870  	97.458098 
2816.337777  	97.440358 
2817.774684  	97.418043 
2819.211591  	97.391100 
2820.648498  	97.372915 
2822.085405  	97.337274 
2823.522312  	97.311140 
2824.959219  	97.298976 
2826.396126  	97.266584 
2827.833033  	97.229859 
2829.269940  	97.205630 
2830.706847  	97.186138 
2832.143754  	97.167084 
2833.580661  	97.150249 
2835.017568  	97.138161 
2836.454475  	97.112798 
2837.891382  	97.058521 
2839.328289  	96.992157 
2840.765196  	96.942187 
2842.202103  	96.911245 
2843.639010  	96.878650 
2845.075917  	96.839428 
2846.512824  	96.786658 
2847.949731  	96.722234 
2849.386638  	96.676943 
2850.823545  	96.626510 
2852.260452  	96.555902 
2853.697359  	96.516313 
2855.134266  	96.485760 
2856.571173  	96.446316 
2858.008080  	96.435845 
2859.444987  	96.407616 
2860.881895  	96.353378 
2862.318802  	96.329609 
2863.755709  	96.297075 
2865.192616  	96.234582 
2866.629523  	96.184470 
2868.066430  	96.147413 
2869.503337  	96.109987 
2870.940244  	96.066396 
2872.377151  	96.028976 
2873.814058  	96.000841 
2875.250965  	95.950750 
2876.687872  	95.907514 
2878.124779  	95.900114 
2879.561686  	95.869021 
2880.998593  	95.796144 
2882.435500  	95.725036 
2883.872407  	95.669904 
2885.309314  	95.626609 
2886.746221  	95.590946 
2888.183128  	95.552992 
2889.620035  	95.504030 
2891.056942  	95.447596 
2892.493849  	95.386677 
2893.930756  	95.321145 
2895.367663  	95.266207 
2896.804570  	95.210848 
2898.241477  	95.137464 
2899.678384  	95.069876 
2901.115291  	95.017443 
2902.552198  	94.984503 
2903.989105  	94.947598 
2905.426012  	94.849637 
2906.862919  	94.754429 
2908.299826  	94.712992 
2909.736733  	94.638611 
2911.173641  	94.542801 
2912.610548  	94.470536 
2914.047455  	94.375037 
2915.484362  	94.270107 
2916.921269  	94.173073 
2918.358176  	94.074476 
2919.795083  	93.985941 
2921.231990  	93.879938 
2922.668897  	93.787271 
2924.105804  	93.733126 
2925.542711  	93.642533 
2926.979618  	93.536807 
2928.416525  	93.455208 
2929.853432  	93.365087 
2931.290339  	93.296446 
2932.727246  	93.242679 
2934.164153  	93.168325 
2935.601060  	93.095347 
2937.037967  	93.023256 
2938.474874  	92.964132 
2939.911781  	92.901459 
2941.348688  	92.809673 
2942.785595  	92.754722 
2944.222502  	92.708789 
2945.659409  	92.615473 
2947.096316  	92.542870 
2948.533223  	92.466768 
2949.970130  	92.336560 
2951.407037  	92.205971 
2952.843944  	92.092835 
2954.280851  	91.996940 
2955.717758  	91.906099 
2957.154665  	91.805753 
2958.591572  	91.715616 
2960.028479  	91.601288 
2961.465387  	91.483094 
2962.902294  	91.406038 
2964.339201  	91.300353 
2965.776108  	91.187086 
2967.213015  	91.106881 
2968.649922  	90.996379 
2970.086829  	90.884576 
2971.523736  	90.777098 
2972.960643  	90.639342 
2974.397550  	90.530876 
2975.834457  	90.434570 
2977.271364  	90.324939 
2978.708271  	90.226934 
2980.145178  	90.087308 
2981.582085  	89.928606 
2983.018992  	89.813179 
2984.455899  	89.718128 
2985.892806  	89.638451 
2987.329713  	89.536172 
2988.766620  	89.385314 
2990.203527  	89.238974 
2991.640434  	89.105584 
2993.077341  	88.974163 
2994.514248  	88.832025 
2995.951155  	88.678828 
2997.388062  	88.538520 
2998.824969  	88.377430 
3000.261876  	88.230984 
3001.698783  	88.127581 
3003.135690  	87.974676 
3004.572597  	87.833693 
3006.009504  	87.728031 
3007.446411  	87.520374 
3008.883318  	87.305850 
3010.320226  	87.172030 
3011.757133  	87.021166 
3013.194040  	86.860962 
3014.630947  	86.693626 
3016.067854  	86.512191 
3017.504761  	86.354985 
3018.941668  	86.177424 
3020.378575  	85.993203 
3021.815482  	85.827547 
3023.252389  	85.647467 
3024.689296  	85.476358 
3026.126203  	85.291546 
3027.563110  	85.105325 
3029.000017  	84.951720 
3030.436924  	84.740674 
3031.873831  	84.506523 
3033.310738  	84.320473 
3034.747645  	84.118354 
3036.184552  	83.917777 
3037.621459  	83.718116 
3039.058366  	83.503629 
3040.495273  	83.321866 
3041.932180  	83.117390 
3043.369087  	82.880357 
3044.805994  	82.663927 
3046.242901  	82.459008 
3047.679808  	82.268354 
3049.116715  	82.036544 
3050.553622  	81.786725 
3051.990529  	81.597037 
3053.427436  	81.370110 
3054.864343  	81.117914 
3056.301250  	80.893347 
3057.738157  	80.627311 
3059.175064  	80.397483 
3060.611972  	80.203877 
3062.048879  	79.970092 
3063.485786  	79.745607 
3064.922693  	79.479281 
3066.359600  	79.199481 
3067.796507  	78.961958 
3069.233414  	78.672798 
3070.670321  	78.416545 
3072.107228  	78.200579 
3073.544135  	77.931976 
3074.981042  	77.704608 
3076.417949  	77.456340 
3077.854856  	77.162926 
3079.291763  	76.919470 
3080.728670  	76.631313 
3082.165577  	76.357929 
3083.602484  	76.119326 
3085.039391  	75.800861 
3086.476298  	75.531508 
3087.913205  	75.267782 
3089.350112  	74.947181 
3090.787019  	74.709129 
3092.223926  	74.431411 
3093.660833  	74.114957 
3095.097740  	73.863908 
3096.534647  	73.549185 
3097.971554  	73.236604 
3099.408461  	72.949253 
3100.845368  	72.626414 
3102.282275  	72.368633 
3103.719182  	72.070350 
3105.156089  	71.736051 
3106.592996  	71.476685 
3108.029903  	71.159029 
3109.466811  	70.847097 
3110.903718  	70.578510 
3112.340625  	70.244318 
3113.777532  	69.941032 
3115.214439  	69.633462 
3116.651346  	69.300412 
3118.088253  	69.013786 
3119.525160  	68.680788 
3120.962067  	68.372421 
3122.398974  	68.108801 
3123.835881  	67.803615 
3125.272788  	67.520255 
3126.709695  	67.181585 
3128.146602  	66.843183 
3129.583509  	66.587428 
3131.020416  	66.244733 
3132.457323  	65.925859 
3133.894230  	65.651637 
3135.331137  	65.299644 
3136.768044  	65.031481 
3138.204951  	64.733134 
3139.641858  	64.370272 
3141.078765  	64.118726 
3142.515672  	63.793852 
3143.952579  	63.459693 
3145.389486  	63.222789 
3146.826393  	62.901150 
3148.263300  	62.595946 
3149.700207  	62.300231 
3151.137114  	61.986104 
3152.574021  	61.751565 
3154.010928  	61.423973 
3155.447835  	61.116819 
3156.884742  	60.893200 
3158.321649  	60.532838 
3159.758557  	60.242184 
3161.195464  	60.014858 
3162.632371  	59.704283 
3164.069278  	59.452522 
3165.506185  	59.120614 
3166.943092  	58.791718 
3168.379999  	58.591976 
3169.816906  	58.290974 
3171.253813  	58.040454 
3172.690720  	57.835508 
3174.127627  	57.522372 
3175.564534  	57.291708 
3177.001441  	57.025787 
3178.438348  	56.751096 
3179.875255  	56.585590 
3181.312162  	56.292612 
3182.749069  	56.030668 
3184.185976  	55.816558 
3185.622883  	55.519438 
3187.059790  	55.376519 
3188.496697  	55.180592 
3189.933604  	54.891307 
3191.370511  	54.752241 
3192.807418  	54.525554 
3194.244325  	54.307618 
3195.681232  	54.168422 
3197.118139  	53.901336 
3198.555046  	53.712151 
3199.991953  	53.513108 
3201.428860  	53.255460 
3202.865767  	53.138988 
3204.302674  	52.933498 
3205.739581  	52.733509 
3207.176488  	52.637845 
3208.613395  	52.447982 
3210.050303  	52.353279 
3211.487210  	52.233524 
3212.924117  	51.997682 
3214.361024  	51.897923 
3215.797931  	51.750197 
3217.234838  	51.599037 
3218.671745  	51.512266 
3220.108652  	51.310614 
3221.545559  	51.229357 
3222.982466  	51.158299 
3224.419373  	50.971307 
3225.856280  	50.913630 
3227.293187  	50.811741 
3228.730094  	50.730107 
3230.167001  	50.718399 
3231.603908  	50.532322 
3233.040815  	50.446937 
3234.477722  	50.411281 
3235.914629  	50.280743 
3237.351536  	50.279788 
3238.788443  	50.166396 
3240.225350  	50.041293 
3241.662257  	50.067459 
3243.099164  	49.942827 
3244.536071  	49.924559 
3245.972978  	49.965091 
3247.409885  	49.829167 
3248.846792  	49.849243 
3250.283699  	49.803447 
3251.720606  	49.649154 
3253.157513  	49.680296 
3254.594420  	49.645335 
3256.031327  	49.631153 
3257.468234  	49.645104 
3258.905142  	49.535380 
3260.342049  	49.576048 
3261.778956  	49.553118 
3263.215863  	49.456058 
3264.652770  	49.542481 
3266.089677  	49.490041 
3267.526584  	49.449874 
3268.963491  	49.501262 
3270.400398  	49.382252 
3271.837305  	49.415454 
3273.274212  	49.476886 
3274.711119  	49.385184 
3276.148026  	49.429966 
3277.584933  	49.423795 
3279.021840  	49.405155 
3280.458747  	49.439379 
3281.895654  	49.328848 
3283.332561  	49.350500 
3284.769468  	49.415378 
3286.206375  	49.375400 
3287.643282  	49.446628 
3289.080189  	49.404457 
3290.517096  	49.332245 
3291.954003  	49.379689 
3293.390910  	49.324420 
3294.827817  	49.351266 
3296.264724  	49.382393 
3297.701631  	49.329962 
3299.138538  	49.410297 
3300.575445  	49.380531 
3302.012352  	49.345319 
3303.449259  	49.419431 
3304.886166  	49.327447 
3306.323073  	49.339463 
3307.759980  	49.386061 
3309.196888  	49.281558 
3310.633795  	49.340079 
3312.070702  	49.344380 
3313.507609  	49.294683 
3314.944516  	49.363784 
3316.381423  	49.275138 
3317.818330  	49.266149 
3319.255237  	49.350797 
3320.692144  	49.280987 
3322.129051  	49.313555 
3323.565958  	49.326527 
3325.002865  	49.311174 
3326.439772  	49.406721 
3327.876679  	49.344022 
3329.313586  	49.339328 
3330.750493  	49.425275 
3332.187400  	49.381422 
3333.624307  	49.443594 
3335.061214  	49.445382 
3336.498121  	49.387148 
3337.935028  	49.459265 
3339.371935  	49.374737 
3340.808842  	49.377919 
3342.245749  	49.519334 
3343.682656  	49.472921 
3345.119563  	49.517570 
3346.556470  	49.579059 
3347.993377  	49.575053 
3349.430284  	49.680380 
3350.867191  	49.640757 
3352.304098  	49.665563 
3353.741005  	49.810741 
3355.177912  	49.753938 
3356.614819  	49.821708 
3358.051726  	49.925090 
3359.488634  	49.883499 
3360.925541  	49.996265 
3362.362448  	50.060985 
3363.799355  	50.090158 
3365.236262  	50.189996 
3366.673169  	50.172661 
3368.110076  	50.265818 
3369.546983  	50.365453 
3370.983890  	50.382398 
3372.420797  	50.556641 
3373.857704  	50.621162 
3375.294611  	50.658333 
3376.731518  	50.793592 
3378.168425  	50.781494 
3379.605332  	50.904557 
3381.042239  	51.094126 
3382.479146  	51.162253 
3383.916053  	51.348564 
3385.352960  	51.428161 
3386.789867  	51.505183 
3388.226774  	51.762281 
3389.663681  	51.837662 
3391.100588  	51.888471 
3392.537495  	51.991327 
3393.974402  	52.076240 
3395.411309  	52.327375 
3396.848216  	52.463487 
3398.285123  	52.540646 
3399.722030  	52.708289 
3401.158937  	52.725649 
3402.595844  	52.912337 
3404.032751  	53.203320 
3405.469658  	53.303354 
3406.906565  	53.517036 
3408.343473  	53.684723 
3409.780380  	53.789288 
3411.217287  	54.020913 
3412.654194  	54.143297 
3414.091101  	54.369578 
3415.528008  	54.635379 
3416.964915  	54.694520 
3418.401822  	54.907983 
3419.838729  	55.130980 
3421.275636  	55.296043 
3422.712543  	55.589996 
3424.149450  	55.707992 
3425.586357  	55.862515 
3427.023264  	56.117891 
3428.460171  	56.222254 
3429.897078  	56.467678 
3431.333985  	56.696095 
3432.770892  	56.840214 
3434.207799  	57.163885 
3435.644706  	57.324354 
3437.081613  	57.440580 
3438.518520  	57.739313 
3439.955427  	57.973992 
3441.392334  	58.253534 
3442.829241  	58.486509 
3444.266148  	58.639563 
3445.703055  	58.870021 
3447.139962  	58.958690 
3448.576869  	59.161477 
3450.013776  	59.485316 
3451.450683  	59.607714 
3452.887590  	59.876288 
3454.324497  	60.119645 
3455.761404  	60.200519 
3457.198311  	60.538572 
3458.635219  	60.817636 
3460.072126  	60.992953 
3461.509033  	61.296233 
3462.945940  	61.460072 
3464.382847  	61.649771 
3465.819754  	61.891173 
3467.256661  	62.081972 
3468.693568  	62.412404 
3470.130475  	62.619272 
3471.567382  	62.786879 
3473.004289  	63.086256 
3474.441196  	63.219099 
3475.878103  	63.429535 
3477.315010  	63.717708 
3478.751917  	63.858258 
3480.188824  	64.150302 
3481.625731  	64.425190 
3483.062638  	64.606450 
3484.499545  	64.897703 
3485.936452  	65.055852 
3487.373359  	65.235036 
3488.810266  	65.523516 
3490.247173  	65.733455 
3491.684080  	66.024539 
3493.120987  	66.243217 
3494.557894  	66.392666 
3495.994801  	66.685129 
3497.431708  	66.897481 
3498.868615  	67.114010 
3500.305522  	67.343520 
3501.742429  	67.429936 
3503.179336  	67.642082 
3504.616243  	67.898249 
3506.053150  	68.119007 
3507.490058  	68.420565 
3508.926965  	68.590466 
3510.363872  	68.813952 
3511.800779  	69.168306 
3513.237686  	69.398766 
3514.674593  	69.673453 
3516.111500  	69.890598 
3517.548407  	70.024094 
3518.985314  	70.299396 
3520.422221  	70.512848 
3521.859128  	70.704266 
3523.296035  	70.932461 
3524.732942  	71.038157 
3526.169849  	71.245876 
3527.606756  	71.478960 
3529.043663  	71.718269 
3530.480570  	72.121435 
3531.917477  	72.375447 
3533.354384  	72.587074 
3534.791291  	72.873547 
3536.228198  	73.015801 
3537.665105  	73.269561 
3539.102012  	73.609810 
3540.538919  	73.810516 
3541.975826  	74.044464 
3543.412733  	74.247507 
3544.849640  	74.441817 
3546.286547  	74.718056 
3547.723454  	74.938610 
3549.160361  	75.190939 
3550.597268  	75.389288 
3552.034175  	75.519641 
3553.471082  	75.846344 
3554.907989  	76.158445 
3556.344896  	76.351386 
3557.781804  	76.601330 
3559.218711  	76.827737 
3560.655618  	77.082931 
3562.092525  	77.382283 
3563.529432  	77.595528 
3564.966339  	77.745408 
3566.403246  	77.768571 
3567.840153  	77.826785 
3569.277060  	78.112387 
3570.713967  	78.311791 
3572.150874  	78.577773 
3573.587781  	78.815912 
3575.024688  	78.990592 
3576.461595  	79.343407 
3577.898502  	79.662614 
3579.335409  	79.911169 
3580.772316  	80.251823 
3582.209223  	80.459980 
3583.646130  	80.546732 
3585.083037  	80.643925 
3586.519944  	80.816683 
3587.956851  	81.161676 
3589.393758  	81.372343 
3590.830665  	81.449927 
3592.267572  	81.628674 
3593.704479  	81.750023 
3595.141386  	81.964380 
3596.578293  	82.322312 
3598.015200  	82.535154 
3599.452107  	82.743224 
3600.889014  	82.935498 
3602.325921  	83.082699 
3603.762828  	83.324315 
3605.199735  	83.531278 
3606.636642  	83.726790 
3608.073550  	83.938762 
3609.510457  	84.113802 
3610.947364  	84.442650 
3612.384271  	84.769021 
3613.821178  	84.912756 
3615.258085  	84.964001 
3616.694992  	84.997558 
3618.131899  	85.120320 
3619.568806  	85.294991 
3621.005713  	85.433014 
3622.442620  	85.739355 
3623.879527  	86.102180 
3625.316434  	86.303004 
3626.753341  	86.413068 
3628.190248  	86.593715 
3629.627155  	86.775552 
3631.064062  	87.110322 
3632.500969  	87.275906 
3633.937876  	87.444645 
3635.374783  	87.425885 
3636.811690  	87.600450 
3638.248597  	88.168791 
3639.685504  	88.608974 
3641.122411  	88.882853 
3642.559318  	89.367017 
3643.996225  	89.767566 
3645.433132  	89.855798 
3646.870039  	89.801995 
3648.306946  	89.850061 
3649.743853  	90.066113 
3651.180760  	89.919632 
3652.617667  	90.223467 
3654.054574  	90.592748 
3655.491481  	90.764496 
3656.928389  	91.107465 
3658.365296  	91.672273 
3659.802203  	91.966270 
3661.239110  	92.258700 
3662.676017  	92.551212 
3664.112924  	92.723351 
3665.549831  	92.909680 
3666.986738  	93.248077 
3668.423645  	93.752138 
3669.860552  	94.279940 
3671.297459  	94.466411 
3672.734366  	94.446477 
3674.171273  	94.512607 
3675.608180  	94.335094 
3677.045087  	94.093228 
3678.481994  	94.377327 
3679.918901  	94.766883 
3681.355808  	95.044955 
3682.792715  	95.221177 
3684.229622  	95.569630 
3685.666529  	95.956474 
3687.103436  	96.309381 
3688.540343  	96.537797 
3689.977250  	96.371036 
3691.414157  	96.219999 
3692.851064  	96.172477 
3694.287971  	96.343093 
3695.724878  	96.622642 
3697.161785  	96.784995 
3698.598692  	97.037012 
3700.035599  	97.294139 
3701.472506  	97.400078 
3702.909413  	97.428626 
3704.346320  	97.526706 
3705.783227  	97.656176 
3707.220135  	97.754729 
3708.657042  	97.771298 
3710.093949  	97.819759 
3711.530856  	97.986958 
3712.967763  	98.025657 
3714.404670  	97.968318 
3715.841577  	97.940195 
3717.278484  	97.978602 
3718.715391  	98.125729 
3720.152298  	98.266510 
3721.589205  	98.344802 
3723.026112  	98.314017 
3724.463019  	98.163100 
3725.899926  	98.096134 
3727.336833  	98.171453 
3728.773740  	98.270705 
3730.210647  	98.433895 
3731.647554  	98.814494 
3733.084461  	98.928858 
3734.521368  	98.631172 
3735.958275  	98.426234 
3737.395182  	98.487985 
3738.832089  	98.315677 
3740.268996  	98.052025 
3741.705903  	98.048518 
3743.142810  	98.307483 
3744.579717  	98.429263 
3746.016624  	98.368496 
3747.453531  	98.435809 
3748.890438  	98.302424 
3750.327345  	97.647850 
3751.764252  	97.216000 
3753.201159  	97.287051 
3754.638066  	97.595919 
3756.074973  	97.844130 
3757.511881  	97.900769 
3758.948788  	97.827148 
3760.385695  	97.875069 
3761.822602  	98.068427 
3763.259509  	98.394810 
3764.696416  	98.544334 
3766.133323  	98.367101 
3767.570230  	98.344181 
3769.007137  	98.517824 
3770.444044  	98.476778 
3771.880951  	98.464067 
3773.317858  	98.538851 
3774.754765  	98.568134 
3776.191672  	98.619434 
3777.628579  	98.697064 
3779.065486  	98.860724 
3780.502393  	98.898881 
3781.939300  	98.752628 
3783.376207  	98.895231 
3784.813114  	99.019640 
3786.250021  	98.721595 
3787.686928  	98.722444 
3789.123835  	99.088913 
3790.560742  	99.244497 
3791.997649  	99.142533 
3793.434556  	99.179559 
3794.871463  	99.478030 
3796.308370  	99.498720 
3797.745277  	99.161789 
3799.182184  	99.412911 
3800.619091  	99.826017 
3802.055998  	99.518649 
3803.492905  	98.991635 
3804.929812  	98.843365 
3806.366720  	98.902351 
3807.803627  	98.955562 
3809.240534  	98.850489 
3810.677441  	98.855687 
3812.114348  	99.060033 
3813.551255  	99.280745 
3814.988162  	99.548507 
3816.425069  	99.571479 
3817.861976  	99.360867 
3819.298883  	99.358314 
3820.735790  	99.365328 
3822.172697  	98.874260 
3823.609604  	98.586146 
3825.046511  	98.701827 
3826.483418  	99.013009 
3827.920325  	98.880047 
3829.357232  	98.769554 
3830.794139  	99.186641 
3832.231046  	99.524670 
3833.667953  	99.363935 
3835.104860  	99.292846 
3836.541767  	99.639982 
3837.978674  	99.864152 
3839.415581  	99.158196 
3840.852488  	98.587939 
3842.289395  	98.619386 
3843.726302  	98.455435 
3845.163209  	98.464068 
3846.600116  	98.973639 
3848.037023  	99.391976 
3849.473930  	99.594381 
3850.910837  	99.749867 
3852.347744  	99.987606 
3853.784651  	99.335780 
3855.221558  	98.443358 
3856.658466  	98.537082 
3858.095373  	98.468680 
3859.532280  	98.273749 
3860.969187  	98.532615 
3862.406094  	99.078824 
3863.843001  	99.379386 
3865.279908  	99.494760 
3866.716815  	99.442260 
3868.153722  	99.305368 
3869.590629  	98.836304 
3871.027536  	97.975963 
3872.464443  	98.421274 
3873.901350  	98.729683 
3875.338257  	98.572069 
3876.775164  	98.771336 
3878.212071  	99.013402 
3879.648978  	99.102541 
3881.085885  	99.046212 
3882.522792  	98.878422 
3883.959699  	98.979733 
3885.396606  	99.206428 
3886.833513  	98.899284 
3888.270420  	98.735919 
3889.707327  	98.842757 
3891.144234  	98.864329 
3892.581141  	98.793165 
3894.018048  	98.818818 
3895.454955  	99.005518 
3896.891862  	99.247292 
3898.328769  	99.296507 
3899.765676  	99.277497 
3901.202583  	99.239648 
3902.639490  	99.043193 
3904.076397  	98.810624 
3905.513305  	98.437914 
3906.950212  	98.127280 
3908.387119  	98.191353 
3909.824026  	98.534930 
3911.260933  	98.848779 
3912.697840  	98.967533 
3914.134747  	99.151873 
3915.571654  	99.366817 
3917.008561  	99.237990 
3918.445468  	98.939964 
3919.882375  	98.949104 
3921.319282  	98.939310 
3922.756189  	98.835462 
3924.193096  	98.839938 
3925.630003  	98.955414 
3927.066910  	99.118668 
3928.503817  	99.160000 
3929.940724  	99.124163 
3931.377631  	99.063535 
3932.814538  	98.858704 
3934.251445  	98.772495 
3935.688352  	98.933480 
3937.125259  	98.948857 
3938.562166  	98.823861 
3939.999073  	98.934023 
3941.435980  	99.141982 
3942.872887  	99.179229 
3944.309794  	99.118140 
3945.746701  	99.112431 
3947.183608  	99.025828 
3948.620515  	98.831771 
3950.057422  	98.781185 
3951.494329  	98.847484 
3952.931236  	98.914445 
3954.368143  	98.997631 
3955.805051  	98.988282 
3957.241958  	98.925768 
3958.678865  	98.944073 
3960.115772  	99.011064 
3961.552679  	99.049882 
3962.989586  	99.010938 
3964.426493  	98.994855 
3965.863400  	99.083571 
3967.300307  	99.103762 
3968.737214  	99.053540 
3970.174121  	99.077169 
3971.611028  	99.139715 
3973.047935  	99.159109 
3974.484842  	99.064809 
3975.921749  	98.957911 
3977.358656  	98.986329 
3978.795563  	99.026151 
3980.232470  	99.036650 
3981.669377  	99.079432 
3983.106284  	99.101478 
3984.543191  	99.117216 
3985.980098  	99.141401 
3987.417005  	99.160843 
3988.853912  	99.146733 
3990.290819  	99.064503 
3991.727726  	99.077223 
3993.164633  	99.161859 
3994.601540  	99.098281 
3996.038447  	99.043296 
3997.475354  	99.097094 
3998.912261  	99.100069 
4000.349168  	99.098866 