##TITLE=No Description
##DATA TYPE=INFRARED SPECTRUM
##XUNITS=1/CM
##YUNITS=%T
399.460154  	31.153597 
400.897061  	30.218565 
402.333968  	30.946783 
403.770875  	31.269195 
405.207782  	31.228385 
406.644689  	31.370382 
408.081596  	31.272780 
409.518503  	31.103281 
410.955410  	30.965158 
412.392317  	31.282270 
413.829224  	31.282212 
415.266131  	30.383067 
416.703038  	30.070638 
418.139945  	31.025126 
419.576852  	31.811530 
421.013759  	31.364962 
422.450666  	30.734531 
423.887574  	30.763644 
425.324481  	31.250865 
426.761388  	31.108516 
428.198295  	30.754704 
429.635202  	30.726992 
431.072109  	31.052845 
432.509016  	31.038408 
433.945923  	30.690982 
435.382830  	30.993220 
436.819737  	31.350720 
438.256644  	31.211637 
439.693551  	31.382608 
441.130458  	31.627307 
442.567365  	31.593986 
444.004272  	31.823548 
445.441179  	31.747361 
446.878086  	31.359238 
448.314993  	30.973177 
449.751900  	30.982578 
451.188807  	31.396155 
452.625714  	31.213540 
454.062621  	31.080397 
455.499528  	31.778517 
456.936435  	31.711823 
458.373342  	30.914703 
459.810249  	30.979083 
461.247156  	31.217618 
462.684063  	31.667161 
464.120970  	31.526779 
465.557877  	30.703108 
466.994784  	30.629250 
468.431691  	31.143580 
469.868598  	31.400267 
471.305505  	31.635283 
472.742413  	31.758951 
474.179320  	31.827557 
475.616227  	31.763331 
477.053134  	31.666526 
478.490041  	31.820208 
479.926948  	31.724804 
481.363855  	31.630154 
482.800762  	31.831110 
484.237669  	31.616780 
485.674576  	31.467440 
487.111483  	31.778609 
488.548390  	31.817087 
489.985297  	31.742489 
491.422204  	31.841209 
492.859111  	32.001225 
494.296018  	32.146098 
495.732925  	32.212272 
497.169832  	32.235335 
498.606739  	32.022393 
500.043646  	31.839872 
501.480553  	32.100155 
502.917460  	32.279671 
504.354367  	32.210470 
505.791274  	32.282247 
507.228181  	32.344994 
508.665088  	32.391751 
510.101995  	32.480190 
511.538902  	32.645179 
512.975809  	32.832331 
514.412716  	32.725676 
515.849623  	32.653614 
517.286530  	32.796674 
518.723437  	32.753826 
520.160344  	32.781025 
521.597251  	32.862114 
523.034159  	32.763644 
524.471066  	32.822126 
525.907973  	32.993733 
527.344880  	33.016536 
528.781787  	32.973225 
530.218694  	33.004378 
531.655601  	33.238080 
533.092508  	33.307417 
534.529415  	33.175519 
535.966322  	33.282521 
537.403229  	33.388959 
538.840136  	33.393162 
540.277043  	33.544146 
541.713950  	33.723205 
543.150857  	33.902755 
544.587764  	33.968135 
546.024671  	33.894673 
547.461578  	33.956823 
548.898485  	34.009507 
550.335392  	34.069545 
551.772299  	34.259672 
553.209206  	34.336588 
554.646113  	34.381187 
556.083020  	34.445792 
557.519927  	34.510626 
558.956834  	34.712509 
560.393741  	34.783069 
561.830648  	34.745596 
563.267555  	34.912124 
564.704462  	35.099140 
566.141369  	35.206901 
567.578276  	35.263197 
569.015183  	35.294684 
570.452090  	35.391712 
571.888997  	35.412580 
573.325905  	35.488182 
574.762812  	35.679170 
576.199719  	35.698836 
577.636626  	35.760056 
579.073533  	35.916636 
580.510440  	36.008178 
581.947347  	36.246176 
583.384254  	36.413133 
584.821161  	36.391208 
586.258068  	36.482888 
587.694975  	36.518689 
589.131882  	36.498888 
590.568789  	36.672532 
592.005696  	36.903744 
593.442603  	37.092663 
594.879510  	37.187154 
596.316417  	37.235346 
597.753324  	37.370697 
599.190231  	37.456697 
600.627138  	37.562175 
602.064045  	37.774927 
603.500952  	37.864654 
604.937859  	37.922712 
606.374766  	38.042281 
607.811673  	38.179385 
609.248580  	38.329131 
610.685487  	38.456379 
612.122394  	38.547444 
613.559301  	38.659526 
614.996208  	38.776031 
616.433115  	38.950291 
617.870022  	39.114920 
619.306929  	39.259166 
620.743836  	39.455087 
622.180744  	39.574809 
623.617651  	39.679640 
625.054558  	39.817651 
626.491465  	39.879360 
627.928372  	40.043608 
629.365279  	40.283301 
630.802186  	40.405056 
632.239093  	40.523109 
633.676000  	40.635208 
635.112907  	40.740396 
636.549814  	40.883279 
637.986721  	41.001447 
639.423628  	41.152509 
640.860535  	41.360883 
642.297442  	41.516337 
643.734349  	41.647556 
645.171256  	41.790793 
646.608163  	41.946386 
648.045070  	42.129485 
649.481977  	42.308006 
650.918884  	42.482596 
652.355791  	42.646803 
653.792698  	42.796703 
655.229605  	42.957338 
656.666512  	43.082398 
658.103419  	43.186088 
659.540326  	43.394348 
660.977233  	43.594638 
662.414140  	43.775693 
663.851047  	43.962434 
665.287954  	44.038756 
666.724861  	44.166182 
668.161768  	44.397482 
669.598675  	44.618983 
671.035582  	44.770932 
672.472490  	44.935965 
673.909397  	45.098170 
675.346304  	45.263151 
676.783211  	45.453152 
678.220118  	45.658900 
679.657025  	45.872208 
681.093932  	46.105736 
682.530839  	46.311769 
683.967746  	46.464775 
685.404653  	46.659379 
686.841560  	46.876840 
688.278467  	47.052646 
689.715374  	47.244071 
691.152281  	47.419642 
692.589188  	47.579830 
694.026095  	47.779799 
695.463002  	47.978680 
696.899909  	48.185149 
698.336816  	48.382401 
699.773723  	48.541368 
701.210630  	48.756926 
702.647537  	48.992509 
704.084444  	49.184586 
705.521351  	49.382371 
706.958258  	49.566907 
708.395165  	49.772212 
709.832072  	50.001701 
711.268979  	50.178559 
712.705886  	50.376475 
714.142793  	50.605168 
715.579700  	50.810667 
717.016607  	51.028524 
718.453514  	51.229995 
719.890421  	51.439502 
721.327328  	51.696049 
722.764236  	51.928178 
724.201143  	52.114125 
725.638050  	52.292785 
727.074957  	52.531181 
728.511864  	52.778857 
729.948771  	52.983633 
731.385678  	53.216639 
732.822585  	53.485148 
734.259492  	53.694306 
735.696399  	53.890605 
737.133306  	54.093718 
738.570213  	54.303173 
740.007120  	54.542216 
741.444027  	54.763326 
742.880934  	54.991948 
744.317841  	55.252338 
745.754748  	55.460270 
747.191655  	55.648886 
748.628562  	55.856654 
750.065469  	56.056644 
751.502376  	56.280774 
752.939283  	56.522822 
754.376190  	56.785607 
755.813097  	57.059984 
757.250004  	57.287551 
758.686911  	57.493348 
760.123818  	57.685533 
761.560725  	57.872394 
762.997632  	58.116013 
764.434539  	58.379138 
765.871446  	58.643946 
767.308353  	58.928266 
768.745260  	59.204158 
770.182167  	59.506029 
771.619075  	59.785436 
773.055982  	59.974411 
774.492889  	60.177596 
775.929796  	60.425179 
777.366703  	60.651976 
778.803610  	60.860723 
780.240517  	61.068140 
781.677424  	61.301123 
783.114331  	61.552270 
784.551238  	61.807194 
785.988145  	62.060020 
787.425052  	62.251041 
788.861959  	62.454072 
790.298866  	62.743804 
791.735773  	62.994520 
793.172680  	63.230090 
794.609587  	63.540802 
796.046494  	63.804803 
797.483401  	63.994666 
798.920308  	64.210747 
800.357215  	64.447107 
801.794122  	64.701426 
803.231029  	64.991176 
804.667936  	65.258061 
806.104843  	65.499513 
807.541750  	65.771172 
808.978657  	66.007760 
810.415564  	66.194797 
811.852471  	66.453383 
813.289378  	66.737878 
814.726285  	66.984813 
816.163192  	67.283744 
817.600099  	67.582571 
819.037006  	67.807625 
820.473913  	68.027489 
821.910821  	68.269562 
823.347728  	68.542502 
824.784635  	68.822522 
826.221542  	69.067162 
827.658449  	69.313617 
829.095356  	69.549689 
830.532263  	69.776204 
831.969170  	70.033130 
833.406077  	70.282303 
834.842984  	70.549974 
836.279891  	70.834897 
837.716798  	71.055004 
839.153705  	71.284221 
840.590612  	71.560090 
842.027519  	71.796924 
843.464426  	72.032945 
844.901333  	72.316433 
846.338240  	72.595334 
847.775147  	72.836792 
849.212054  	73.075607 
850.648961  	73.347916 
852.085868  	73.610413 
853.522775  	73.843994 
854.959682  	74.090457 
856.396589  	74.336703 
857.833496  	74.564052 
859.270403  	74.786870 
860.707310  	75.019600 
862.144217  	75.260170 
863.581124  	75.480981 
865.018031  	75.705696 
866.454938  	75.964891 
867.891845  	76.225478 
869.328752  	76.466591 
870.765660  	76.676748 
872.202567  	76.882073 
873.639474  	77.128805 
875.076381  	77.389399 
876.513288  	77.638146 
877.950195  	77.847499 
879.387102  	78.023272 
880.824009  	78.255674 
882.260916  	78.504840 
883.697823  	78.708398 
885.134730  	78.939789 
886.571637  	79.173686 
888.008544  	79.348827 
889.445451  	79.506286 
890.882358  	79.694084 
892.319265  	79.917095 
893.756172  	80.107733 
895.193079  	80.278609 
896.629986  	80.504042 
898.066893  	80.718928 
899.503800  	80.898367 
900.940707  	81.076237 
902.377614  	81.240803 
903.814521  	81.430317 
905.251428  	81.611505 
906.688335  	81.771401 
908.125242  	81.974094 
909.562149  	82.133045 
910.999056  	82.265130 
912.435963  	82.472641 
913.872870  	82.642141 
915.309777  	82.762399 
916.746684  	82.925332 
918.183591  	83.092963 
919.620498  	83.264764 
921.057406  	83.448754 
922.494313  	83.628385 
923.931220  	83.793884 
925.368127  	83.912050 
926.805034  	84.036874 
928.241941  	84.188527 
929.678848  	84.317841 
931.115755  	84.455066 
932.552662  	84.593549 
933.989569  	84.725949 
935.426476  	84.866224 
936.863383  	84.981786 
938.300290  	85.118304 
939.737197  	85.246210 
941.174104  	85.299649 
942.611011  	85.396378 
944.047918  	85.549070 
945.484825  	85.683468 
946.921732  	85.811339 
948.358639  	85.889109 
949.795546  	85.957457 
951.232453  	86.074972 
952.669360  	86.169372 
954.106267  	86.259137 
955.543174  	86.370535 
956.980081  	86.466106 
958.416988  	86.552144 
959.853895  	86.627059 
961.290802  	86.729324 
962.727709  	86.843200 
964.164616  	86.905359 
965.601523  	86.990275 
967.038430  	87.098288 
968.475337  	87.174106 
969.912244  	87.261833 
971.349152  	87.337294 
972.786059  	87.406514 
974.222966  	87.498018 
975.659873  	87.564617 
977.096780  	87.641329 
978.533687  	87.717182 
979.970594  	87.761296 
981.407501  	87.833961 
982.844408  	87.889071 
984.281315  	87.930556 
985.718222  	88.010798 
987.155129  	88.046921 
988.592036  	88.070980 
990.028943  	88.139657 
991.465850  	88.203704 
992.902757  	88.279852 
994.339664  	88.329525 
995.776571  	88.333648 
997.213478  	88.363355 
998.650385  	88.397374 
1000.087292  	88.445038 
1001.524199  	88.504780 
1002.961106  	88.513626 
1004.398013  	88.528623 
1005.834920  	88.558850 
1007.271827  	88.577483 
1008.708734  	88.638718 
1010.145641  	88.682970 
1011.582548  	88.682868 
1013.019455  	88.727985 
1014.456362  	88.802738 
1015.893269  	88.854745 
1017.330176  	88.880755 
1018.767083  	88.915056 
1020.203991  	88.982375 
1021.640898  	89.034217 
1023.077805  	89.065698 
1024.514712  	89.090043 
1025.951619  	89.092324 
1027.388526  	89.104917 
1028.825433  	89.106869 
1030.262340  	89.084685 
1031.699247  	89.089557 
1033.136154  	89.097402 
1034.573061  	89.101706 
1036.009968  	89.113625 
1037.446875  	89.109276 
1038.883782  	89.131200 
1040.320689  	89.171144 
1041.757596  	89.194648 
1043.194503  	89.239061 
1044.631410  	89.283692 
1046.068317  	89.328498 
1047.505224  	89.389436 
1048.942131  	89.418583 
1050.379038  	89.438441 
1051.815945  	89.464299 
1053.252852  	89.491278 
1054.689759  	89.551103 
1056.126666  	89.597823 
1057.563573  	89.630274 
1059.000480  	89.681175 
1060.437387  	89.704703 
1061.874294  	89.720021 
1063.311201  	89.743758 
1064.748108  	89.775072 
1066.185015  	89.829177 
1067.621922  	89.825286 
1069.058829  	89.804020 
1070.495737  	89.869631 
1071.932644  	89.916722 
1073.369551  	89.886179 
1074.806458  	89.847426 
1076.243365  	89.853236 
1077.680272  	89.898739 
1079.117179  	89.882629 
1080.554086  	89.828634 
1081.990993  	89.840892 
1083.427900  	89.861127 
1084.864807  	89.864649 
1086.301714  	89.878351 
1087.738621  	89.881109 
1089.175528  	89.881217 
1090.612435  	89.870182 
1092.049342  	89.880536 
1093.486249  	89.922678 
1094.923156  	89.926359 
1096.360063  	89.940436 
1097.796970  	89.967584 
1099.233877  	89.944402 
1100.670784  	89.954786 
1102.107691  	89.990623 
1103.544598  	89.992942 
1104.981505  	90.021262 
1106.418412  	90.063608 
1107.855319  	90.092082 
1109.292226  	90.103104 
1110.729133  	90.094065 
1112.166040  	90.109664 
1113.602947  	90.111925 
1115.039854  	90.100116 
1116.476761  	90.131488 
1117.913668  	90.141297 
1119.350575  	90.138980 
1120.787483  	90.162185 
1122.224390  	90.172581 
1123.661297  	90.210595 
1125.098204  	90.229004 
1126.535111  	90.192142 
1127.972018  	90.217264 
1129.408925  	90.271665 
1130.845832  	90.288409 
1132.282739  	90.283368 
1133.719646  	90.243097 
1135.156553  	90.235750 
1136.593460  	90.257116 
1138.030367  	90.239902 
1139.467274  	90.249527 
1140.904181  	90.267187 
1142.341088  	90.254920 
1143.777995  	90.263516 
1145.214902  	90.256655 
1146.651809  	90.234938 
1148.088716  	90.234001 
1149.525623  	90.231454 
1150.962530  	90.234873 
1152.399437  	90.220770 
1153.836344  	90.203942 
1155.273251  	90.228054 
1156.710158  	90.229567 
1158.147065  	90.219514 
1159.583972  	90.241536 
1161.020879  	90.246808 
1162.457786  	90.237314 
1163.894693  	90.217201 
1165.331600  	90.199051 
1166.768507  	90.215792 
1168.205414  	90.214999 
1169.642322  	90.198210 
1171.079229  	90.202798 
1172.516136  	90.213330 
1173.953043  	90.237572 
1175.389950  	90.230704 
1176.826857  	90.198538 
1178.263764  	90.212945 
1179.700671  	90.210696 
1181.137578  	90.186101 
1182.574485  	90.195034 
1184.011392  	90.185657 
1185.448299  	90.181150 
1186.885206  	90.205746 
1188.322113  	90.208569 
1189.759020  	90.207770 
1191.195927  	90.202008 
1192.632834  	90.193234 
1194.069741  	90.204280 
1195.506648  	90.197129 
1196.943555  	90.186426 
1198.380462  	90.182534 
1199.817369  	90.161237 
1201.254276  	90.156766 
1202.691183  	90.150919 
1204.128090  	90.136463 
1205.564997  	90.151827 
1207.001904  	90.156463 
1208.438811  	90.155761 
1209.875718  	90.175372 
1211.312625  	90.170240 
1212.749532  	90.147730 
1214.186439  	90.135100 
1215.623346  	90.150041 
1217.060253  	90.184063 
1218.497160  	90.173457 
1219.934068  	90.148407 
1221.370975  	90.153742 
1222.807882  	90.151190 
1224.244789  	90.152902 
1225.681696  	90.160862 
1227.118603  	90.156347 
1228.555510  	90.154038 
1229.992417  	90.134030 
1231.429324  	90.120344 
1232.866231  	90.135143 
1234.303138  	90.126892 
1235.740045  	90.116235 
1237.176952  	90.122930 
1238.613859  	90.105817 
1240.050766  	90.086508 
1241.487673  	90.088732 
1242.924580  	90.087062 
1244.361487  	90.071111 
1245.798394  	90.063554 
1247.235301  	90.069527 
1248.672208  	90.051080 
1250.109115  	90.026996 
1251.546022  	90.031616 
1252.982929  	90.026227 
1254.419836  	90.009274 
1255.856743  	90.001437 
1257.293650  	89.998542 
1258.730557  	89.999100 
1260.167464  	89.981818 
1261.604371  	89.984105 
1263.041278  	90.012215 
1264.478185  	89.989143 
1265.915092  	89.969616 
1267.351999  	89.984411 
1268.788907  	89.961602 
1270.225814  	89.951779 
1271.662721  	89.963385 
1273.099628  	89.949869 
1274.536535  	89.944728 
1275.973442  	89.919081 
1277.410349  	89.888456 
1278.847256  	89.902856 
1280.284163  	89.908879 
1281.721070  	89.917195 
1283.157977  	89.938616 
1284.594884  	89.942943 
1286.031791  	89.964287 
1287.468698  	89.973156 
1288.905605  	89.966247 
1290.342512  	89.979495 
1291.779419  	89.954462 
1293.216326  	89.933505 
1294.653233  	89.967606 
1296.090140  	89.986866 
1297.527047  	89.998772 
1298.963954  	90.012988 
1300.400861  	90.014044 
1301.837768  	90.022154 
1303.274675  	90.016813 
1304.711582  	90.024577 
1306.148489  	90.045363 
1307.585396  	90.055871 
1309.022303  	90.079319 
1310.459210  	90.085344 
1311.896117  	90.077243 
1313.333024  	90.070271 
1314.769931  	90.082128 
1316.206838  	90.087359 
1317.643745  	90.089952 
1319.080653  	90.088284 
1320.517560  	90.103175 
1321.954467  	90.129201 
1323.391374  	90.115399 
1324.828281  	90.110969 
1326.265188  	90.111608 
1327.702095  	90.104095 
1329.139002  	90.092076 
1330.575909  	90.078490 
1332.012816  	90.103581 
1333.449723  	90.126026 
1334.886630  	90.096536 
1336.323537  	90.075699 
1337.760444  	90.048558 
1339.197351  	89.993745 
1340.634258  	89.987210 
1342.071165  	90.025336 
1343.508072  	90.064094 
1344.944979  	90.078072 
1346.381886  	90.059429 
1347.818793  	90.037784 
1349.255700  	90.010723 
1350.692607  	90.004613 
1352.129514  	90.005767 
1353.566421  	89.973332 
1355.003328  	89.945965 
1356.440235  	89.955807 
1357.877142  	89.938189 
1359.314049  	89.914189 
1360.750956  	89.875854 
1362.187863  	89.832605 
1363.624770  	89.826735 
1365.061677  	89.819761 
1366.498584  	89.805553 
1367.935491  	89.767115 
1369.372399  	89.725458 
1370.809306  	89.697476 
1372.246213  	89.648374 
1373.683120  	89.577282 
1375.120027  	89.526798 
1376.556934  	89.492618 
1377.993841  	89.454915 
1379.430748  	89.416151 
1380.867655  	89.381091 
1382.304562  	89.378816 
1383.741469  	89.354985 
1385.178376  	89.312972 
1386.615283  	89.283243 
1388.052190  	89.266214 
1389.489097  	89.249280 
1390.926004  	89.247211 
1392.362911  	89.260589 
1393.799818  	89.287823 
1395.236725  	89.319760 
1396.673632  	89.311624 
1398.110539  	89.331686 
1399.547446  	89.353694 
1400.984353  	89.375097 
1402.421260  	89.420954 
1403.858167  	89.441256 
1405.295074  	89.461730 
1406.731981  	89.509547 
1408.168888  	89.522852 
1409.605795  	89.512062 
1411.042702  	89.495691 
1412.479609  	89.519395 
1413.916516  	89.574864 
1415.353423  	89.565178 
1416.790330  	89.560664 
1418.227238  	89.652312 
1419.664145  	89.709044 
1421.101052  	89.699325 
1422.537959  	89.703578 
1423.974866  	89.705686 
1425.411773  	89.722279 
1426.848680  	89.736222 
1428.285587  	89.715349 
1429.722494  	89.703760 
1431.159401  	89.746189 
1432.596308  	89.783987 
1434.033215  	89.791703 
1435.470122  	89.790977 
1436.907029  	89.761856 
1438.343936  	89.720618 
1439.780843  	89.731413 
1441.217750  	89.756863 
1442.654657  	89.739790 
1444.091564  	89.737899 
1445.528471  	89.742575 
1446.965378  	89.707661 
1448.402285  	89.702864 
1449.839192  	89.719511 
1451.276099  	89.705426 
1452.713006  	89.691330 
1454.149913  	89.692434 
1455.586820  	89.749563 
1457.023727  	89.778493 
1458.460634  	89.665978 
1459.897541  	89.626517 
1461.334448  	89.630946 
1462.771355  	89.643491 
1464.208262  	89.656451 
1465.645169  	89.644148 
1467.082076  	89.662582 
1468.518984  	89.638304 
1469.955891  	89.594067 
1471.392798  	89.597800 
1472.829705  	89.532161 
1474.266612  	89.504882 
1475.703519  	89.552408 
1477.140426  	89.515610 
1478.577333  	89.485506 
1480.014240  	89.523600 
1481.451147  	89.492009 
1482.888054  	89.464715 
1484.324961  	89.486852 
1485.761868  	89.431595 
1487.198775  	89.341700 
1488.635682  	89.279406 
1490.072589  	89.262475 
1491.509496  	89.292090 
1492.946403  	89.264873 
1494.383310  	89.229519 
1495.820217  	89.153858 
1497.257124  	89.068577 
1498.694031  	89.072320 
1500.130938  	89.045404 
1501.567845  	89.001736 
1503.004752  	88.994538 
1504.441659  	88.979587 
1505.878566  	88.973988 
1507.315473  	88.781968 
1508.752380  	88.661730 
1510.189287  	88.695152 
1511.626194  	88.652610 
1513.063101  	88.570228 
1514.500008  	88.568932 
1515.936915  	88.569187 
1517.373822  	88.531957 
1518.810730  	88.476548 
1520.247637  	88.404726 
1521.684544  	88.329905 
1523.121451  	88.236689 
1524.558358  	88.168667 
1525.995265  	88.113438 
1527.432172  	88.025000 
1528.869079  	87.992832 
1530.305986  	87.942653 
1531.742893  	87.814914 
1533.179800  	87.752906 
1534.616707  	87.649128 
1536.053614  	87.528782 
1537.490521  	87.460327 
1538.927428  	87.306087 
1540.364335  	87.116927 
1541.801242  	87.115860 
1543.238149  	86.959927 
1544.675056  	86.831824 
1546.111963  	86.744648 
1547.548870  	86.638555 
1548.985777  	86.505564 
1550.422684  	86.298652 
1551.859591  	86.207104 
1553.296498  	86.159612 
1554.733405  	85.918822 
1556.170312  	85.693260 
1557.607219  	85.576422 
1559.044126  	85.337742 
1560.481033  	85.278467 
1561.917940  	85.113000 
1563.354847  	84.984014 
1564.791754  	84.936343 
1566.228661  	84.700649 
1567.665569  	84.584754 
1569.102476  	84.489350 
1570.539383  	84.161356 
1571.976290  	84.023175 
1573.413197  	83.823078 
1574.850104  	83.596249 
1576.287011  	83.469972 
1577.723918  	83.271969 
1579.160825  	83.100067 
1580.597732  	82.938406 
1582.034639  	82.696571 
1583.471546  	82.538709 
1584.908453  	82.348271 
1586.345360  	82.071948 
1587.782267  	81.857268 
1589.219174  	81.554992 
1590.656081  	81.247267 
1592.092988  	80.992383 
1593.529895  	80.667114 
1594.966802  	80.393587 
1596.403709  	80.083800 
1597.840616  	79.711080 
1599.277523  	79.421845 
1600.714430  	78.990037 
1602.151337  	78.544925 
1603.588244  	78.185003 
1605.025151  	77.700794 
1606.462058  	77.242180 
1607.898965  	76.789946 
1609.335872  	76.258483 
1610.772779  	75.853019 
1612.209686  	75.400809 
1613.646593  	74.896030 
1615.083500  	74.552183 
1616.520407  	74.025403 
1617.957315  	73.441585 
1619.394222  	72.991235 
1620.831129  	72.454240 
1622.268036  	72.111170 
1623.704943  	71.732910 
1625.141850  	71.254593 
1626.578757  	70.969612 
1628.015664  	70.603130 
1629.452571  	70.458740 
1630.889478  	70.406809 
1632.326385  	70.089774 
1633.763292  	69.940677 
1635.200199  	69.980990 
1636.637106  	69.943026 
1638.074013  	70.053937 
1639.510920  	69.993499 
1640.947827  	70.050866 
1642.384734  	70.330716 
1643.821641  	70.437428 
1645.258548  	70.634963 
1646.695455  	71.142353 
1648.132362  	71.505232 
1649.569269  	71.717677 
1651.006176  	71.833520 
1652.443083  	72.024860 
1653.879990  	73.312663 
1655.316897  	73.420767 
1656.753804  	73.523193 
1658.190711  	73.921766 
1659.627618  	74.277630 
1661.064525  	74.695863 
1662.501432  	75.161770 
1663.938339  	75.643918 
1665.375246  	76.114802 
1666.812154  	76.498283 
1668.249061  	76.902624 
1669.685968  	77.415448 
1671.122875  	77.870285 
1672.559782  	78.346583 
1673.996689  	78.804697 
1675.433596  	79.224625 
1676.870503  	79.785097 
1678.307410  	80.219734 
1679.744317  	80.621246 
1681.181224  	81.141427 
1682.618131  	81.535079 
1684.055038  	81.964695 
1685.491945  	82.554846 
1686.928852  	82.847588 
1688.365759  	83.273663 
1689.802666  	83.762486 
1691.239573  	84.160379 
1692.676480  	84.598684 
1694.113387  	84.932360 
1695.550294  	85.287363 
1696.987201  	85.722150 
1698.424108  	85.943621 
1699.861015  	86.256581 
1701.297922  	86.723772 
1702.734829  	86.942802 
1704.171736  	87.251453 
1705.608643  	87.550589 
1707.045550  	87.828847 
1708.482457  	88.204437 
1709.919364  	88.497755 
1711.356271  	88.750515 
1712.793178  	89.036777 
1714.230085  	89.246563 
1715.666992  	89.540744 
1717.103900  	89.874914 
1718.540807  	90.158485 
1719.977714  	90.440321 
1721.414621  	90.635879 
1722.851528  	90.842392 
1724.288435  	91.084703 
1725.725342  	91.320851 
1727.162249  	91.625036 
1728.599156  	91.783982 
1730.036063  	91.871146 
1731.472970  	92.047630 
1732.909877  	92.187516 
1734.346784  	92.266797 
1735.783691  	92.389670 
1737.220598  	92.480076 
1738.657505  	92.643337 
1740.094412  	92.818510 
1741.531319  	92.902179 
1742.968226  	93.063477 
1744.405133  	93.178573 
1745.842040  	93.259772 
1747.278947  	93.389650 
1748.715854  	93.441765 
1750.152761  	93.547712 
1751.589668  	93.699284 
1753.026575  	93.756727 
1754.463482  	93.889275 
1755.900389  	94.000423 
1757.337296  	94.029232 
1758.774203  	94.113270 
1760.211110  	94.227499 
1761.648017  	94.331264 
1763.084924  	94.389761 
1764.521831  	94.411187 
1765.958738  	94.520441 
1767.395646  	94.546437 
1768.832553  	94.557919 
1770.269460  	94.687185 
1771.706367  	94.705668 
1773.143274  	94.680693 
1774.580181  	94.791661 
1776.017088  	94.841953 
1777.453995  	94.905201 
1778.890902  	94.959024 
1780.327809  	94.957940 
1781.764716  	95.005795 
1783.201623  	95.051175 
1784.638530  	95.065658 
1786.075437  	95.117126 
1787.512344  	95.162344 
1788.949251  	95.221523 
1790.386158  	95.303914 
1791.823065  	95.346434 
1793.259972  	95.384657 
1794.696879  	95.374433 
1796.133786  	95.376781 
1797.570693  	95.414839 
1799.007600  	95.454230 
1800.444507  	95.507985 
1801.881414  	95.505084 
1803.318321  	95.504834 
1804.755228  	95.617963 
1806.192135  	95.662242 
1807.629042  	95.639278 
1809.065949  	95.654790 
1810.502856  	95.636069 
1811.939763  	95.642831 
1813.376670  	95.674355 
1814.813577  	95.686162 
1816.250485  	95.729387 
1817.687392  	95.736588 
1819.124299  	95.751971 
1820.561206  	95.803029 
1821.998113  	95.763626 
1823.435020  	95.790836 
1824.871927  	95.838249 
1826.308834  	95.793430 
1827.745741  	95.865144 
1829.182648  	95.954690 
1830.619555  	95.904139 
1832.056462  	95.909205 
1833.493369  	95.895643 
1834.930276  	95.905253 
1836.367183  	95.986930 
1837.804090  	96.008337 
1839.240997  	96.035564 
1840.677904  	96.034759 
1842.114811  	96.036066 
1843.551718  	96.144968 
1844.988625  	96.093009 
1846.425532  	96.046300 
1847.862439  	96.112613 
1849.299346  	96.071377 
1850.736253  	96.097561 
1852.173160  	96.155300 
1853.610067  	96.081248 
1855.046974  	96.150940 
1856.483881  	96.206777 
1857.920788  	96.120243 
1859.357695  	96.128732 
1860.794602  	96.117527 
1862.231509  	96.113041 
1863.668416  	96.171316 
1865.105323  	96.201371 
1866.542231  	96.271921 
1867.979138  	96.263459 
1869.416045  	96.146837 
1870.852952  	96.167040 
1872.289859  	96.199986 
1873.726766  	96.236387 
1875.163673  	96.211135 
1876.600580  	96.107484 
1878.037487  	96.156545 
1879.474394  	96.206412 
1880.911301  	96.228682 
1882.348208  	96.292327 
1883.785115  	96.240551 
1885.222022  	96.188468 
1886.658929  	96.254401 
1888.095836  	96.270758 
1889.532743  	96.290458 
1890.969650  	96.269565 
1892.406557  	96.244094 
1893.843464  	96.292698 
1895.280371  	96.234834 
1896.717278  	96.217569 
1898.154185  	96.309252 
1899.591092  	96.304080 
1901.027999  	96.320611 
1902.464906  	96.344579 
1903.901813  	96.311981 
1905.338720  	96.336582 
1906.775627  	96.292574 
1908.212534  	96.258588 
1909.649441  	96.266016 
1911.086348  	96.237877 
1912.523255  	96.355433 
1913.960162  	96.416048 
1915.397069  	96.258683 
1916.833977  	96.309983 
1918.270884  	96.328277 
1919.707791  	96.291732 
1921.144698  	96.334768 
1922.581605  	96.322639 
1924.018512  	96.328826 
1925.455419  	96.351821 
1926.892326  	96.282313 
1928.329233  	96.312239 
1929.766140  	96.241868 
1931.203047  	96.181844 
1932.639954  	96.279197 
1934.076861  	96.168355 
1935.513768  	96.195155 
1936.950675  	96.390409 
1938.387582  	96.374887 
1939.824489  	96.478656 
1941.261396  	96.495311 
1942.698303  	96.314504 
1944.135210  	96.324948 
1945.572117  	96.222354 
1947.009024  	96.167787 
1948.445931  	96.172967 
1949.882838  	96.089788 
1951.319745  	96.172835 
1952.756652  	96.352082 
1954.193559  	96.261015 
1955.630466  	96.293479 
1957.067373  	96.307875 
1958.504280  	96.236456 
1959.941187  	96.225829 
1961.378094  	96.250805 
1962.815001  	96.337541 
1964.251908  	96.293618 
1965.688816  	96.224052 
1967.125723  	96.257078 
1968.562630  	96.176477 
1969.999537  	96.167747 
1971.436444  	96.255561 
1972.873351  	96.174362 
1974.310258  	96.334843 
1975.747165  	96.396311 
1977.184072  	96.085779 
1978.620979  	95.991139 
1980.057886  	95.970815 
1981.494793  	95.882173 
1982.931700  	95.848548 
1984.368607  	95.840484 
1985.805514  	96.005618 
1987.242421  	96.011494 
1988.679328  	95.872572 
1990.116235  	95.956074 
1991.553142  	95.817234 
1992.990049  	95.644175 
1994.426956  	95.803696 
1995.863863  	95.779270 
1997.300770  	95.703934 
1998.737677  	95.825014 
2000.174584  	95.681500 
2001.611491  	95.692579 
2003.048398  	95.762675 
2004.485305  	95.688717 
2005.922212  	95.842398 
2007.359119  	95.762248 
2008.796026  	95.493804 
2010.232933  	95.535046 
2011.669840  	95.667243 
2013.106747  	95.731701 
2014.543654  	95.553299 
2015.980562  	95.413072 
2017.417469  	95.445214 
2018.854376  	95.307002 
2020.291283  	95.395963 
2021.728190  	95.434516 
2023.165097  	95.066822 
2024.602004  	95.184893 
2026.038911  	95.581153 
2027.475818  	95.688768 
2028.912725  	95.641018 
2030.349632  	95.216532 
2031.786539  	95.156009 
2033.223446  	95.651948 
2034.660353  	95.669258 
2036.097260  	95.401926 
2037.534167  	95.104261 
2038.971074  	94.849708 
2040.407981  	94.904286 
2041.844888  	94.983091 
2043.281795  	95.031789 
2044.718702  	95.047245 
2046.155609  	94.959815 
2047.592516  	95.087337 
2049.029423  	95.020557 
2050.466330  	94.709137 
2051.903237  	94.785047 
2053.340144  	94.936147 
2054.777051  	94.852450 
2056.213958  	94.663226 
2057.650865  	94.504248 
2059.087772  	94.631870 
2060.524679  	94.819075 
2061.961586  	94.804364 
2063.398493  	94.823032 
2064.835401  	94.774197 
2066.272308  	94.686038 
2067.709215  	94.672452 
2069.146122  	94.598812 
2070.583029  	94.618175 
2072.019936  	94.655914 
2073.456843  	94.593343 
2074.893750  	94.585237 
2076.330657  	94.485940 
2077.767564  	94.461694 
2079.204471  	94.654788 
2080.641378  	94.680669 
2082.078285  	94.637244 
2083.515192  	94.618353 
2084.952099  	94.512675 
2086.389006  	94.555451 
2087.825913  	94.626598 
2089.262820  	94.580717 
2090.699727  	94.588843 
2092.136634  	94.549126 
2093.573541  	94.513769 
2095.010448  	94.530377 
2096.447355  	94.456404 
2097.884262  	94.462307 
2099.321169  	94.517598 
2100.758076  	94.516494 
2102.194983  	94.571530 
2103.631890  	94.584740 
2105.068797  	94.595617 
2106.505704  	94.612675 
2107.942611  	94.530891 
2109.379518  	94.522393 
2110.816425  	94.507927 
2112.253332  	94.462244 
2113.690239  	94.618318 
2115.127147  	94.739731 
2116.564054  	94.694635 
2118.000961  	94.642172 
2119.437868  	94.562029 
2120.874775  	94.527967 
2122.311682  	94.561671 
2123.748589  	94.620706 
2125.185496  	94.674841 
2126.622403  	94.600946 
2128.059310  	94.611528 
2129.496217  	94.697698 
2130.933124  	94.625561 
2132.370031  	94.749973 
2133.806938  	94.901463 
2135.243845  	94.709558 
2136.680752  	94.700506 
2138.117659  	94.828716 
2139.554566  	94.915151 
2140.991473  	95.139851 
2142.428380  	95.144884 
2143.865287  	95.151637 
2145.302194  	95.311876 
2146.739101  	95.247506 
2148.176008  	95.358633 
2149.612915  	95.601497 
2151.049822  	95.728256 
2152.486729  	95.932028 
2153.923636  	95.656127 
2155.360543  	95.179079 
2156.797450  	95.349856 
2158.234357  	95.668821 
2159.671264  	95.695505 
2161.108171  	95.526112 
2162.545078  	95.358599 
2163.981985  	95.311580 
2165.418893  	95.173524 
2166.855800  	95.190325 
2168.292707  	95.319471 
2169.729614  	95.174166 
2171.166521  	95.134208 
2172.603428  	95.227032 
2174.040335  	95.225656 
2175.477242  	95.306336 
2176.914149  	95.211324 
2178.351056  	95.025648 
2179.787963  	95.216461 
2181.224870  	95.502333 
2182.661777  	95.466841 
2184.098684  	95.156887 
2185.535591  	95.051373 
2186.972498  	95.199345 
2188.409405  	95.093481 
2189.846312  	94.984048 
2191.283219  	95.143948 
2192.720126  	95.137730 
2194.157033  	95.088925 
2195.593940  	95.249158 
2197.030847  	95.323591 
2198.467754  	95.174884 
2199.904661  	95.000363 
2201.341568  	94.991322 
2202.778475  	94.965293 
2204.215382  	94.924899 
2205.652289  	95.162256 
2207.089196  	95.309917 
2208.526103  	95.173395 
2209.963010  	95.139069 
2211.399917  	95.156713 
2212.836824  	95.209874 
2214.273732  	95.234741 
2215.710639  	95.001535 
2217.147546  	94.917881 
2218.584453  	95.072062 
2220.021360  	95.101172 
2221.458267  	95.153196 
2222.895174  	95.241913 
2224.332081  	95.293911 
2225.768988  	95.405862 
2227.205895  	95.425292 
2228.642802  	95.430649 
2230.079709  	95.563212 
2231.516616  	95.622372 
2232.953523  	95.519552 
2234.390430  	95.394351 
2235.827337  	95.449077 
2237.264244  	95.573303 
2238.701151  	95.541823 
2240.138058  	95.477845 
2241.574965  	95.413056 
2243.011872  	95.387494 
2244.448779  	95.482290 
2245.885686  	95.448578 
2247.322593  	95.370793 
2248.759500  	95.448727 
2250.196407  	95.467558 
2251.633314  	95.496243 
2253.070221  	95.566438 
2254.507128  	95.538969 
2255.944035  	95.526963 
2257.380942  	95.536926 
2258.817849  	95.546563 
2260.254756  	95.626456 
2261.691663  	95.635616 
2263.128570  	95.575146 
2264.565478  	95.607967 
2266.002385  	95.700055 
2267.439292  	95.720060 
2268.876199  	95.632161 
2270.313106  	95.596810 
2271.750013  	95.668896 
2273.186920  	95.706527 
2274.623827  	95.739888 
2276.060734  	95.790481 
2277.497641  	95.781034 
2278.934548  	95.802352 
2280.371455  	95.828321 
2281.808362  	95.781893 
2283.245269  	95.727707 
2284.682176  	95.664787 
2286.119083  	95.675509 
2287.555990  	95.742791 
2288.992897  	95.755974 
2290.429804  	95.757989 
2291.866711  	95.764208 
2293.303618  	95.762132 
2294.740525  	95.736798 
2296.177432  	95.742325 
2297.614339  	95.691144 
2299.051246  	95.738672 
2300.488153  	95.802712 
2301.925060  	95.818886 
2303.361967  	95.850557 
2304.798874  	95.920945 
2306.235781  	95.917718 
2307.672688  	95.780210 
2309.109595  	95.690935 
2310.546502  	95.710816 
2311.983409  	95.736919 
2313.420317  	95.794548 
2314.857224  	95.804258 
2316.294131  	95.774863 
2317.731038  	95.838934 
2319.167945  	95.863491 
2320.604852  	95.833068 
2322.041759  	95.820316 
2323.478666  	95.698311 
2324.915573  	95.647543 
2326.352480  	95.785181 
2327.789387  	95.904287 
2329.226294  	95.964152 
2330.663201  	95.950560 
2332.100108  	95.902783 
2333.537015  	95.963177 
2334.973922  	96.016777 
2336.410829  	95.997604 
2337.847736  	95.991460 
2339.284643  	96.014229 
2340.721550  	96.068299 
2342.158457  	96.053214 
2343.595364  	95.993672 
2345.032271  	96.006594 
2346.469178  	95.984435 
2347.906085  	95.980468 
2349.342992  	96.044110 
2350.779899  	96.054125 
2352.216806  	96.047815 
2353.653713  	96.097904 
2355.090620  	96.117379 
2356.527527  	96.185942 
2357.964434  	96.277843 
2359.401341  	96.260702 
2360.838248  	96.289428 
2362.275155  	96.373504 
2363.712063  	96.411213 
2365.148970  	96.441088 
2366.585877  	96.478956 
2368.022784  	96.544326 
2369.459691  	96.585690 
2370.896598  	96.579426 
2372.333505  	96.583114 
2373.770412  	96.600737 
2375.207319  	96.627351 
2376.644226  	96.637127 
2378.081133  	96.637354 
2379.518040  	96.664726 
2380.954947  	96.668632 
2382.391854  	96.663011 
2383.828761  	96.707403 
2385.265668  	96.755353 
2386.702575  	96.770019 
2388.139482  	96.788995 
2389.576389  	96.813883 
2391.013296  	96.806645 
2392.450203  	96.772716 
2393.887110  	96.752631 
2395.324017  	96.756272 
2396.760924  	96.771957 
2398.197831  	96.815134 
2399.634738  	96.866752 
2401.071645  	96.898378 
2402.508552  	96.909303 
2403.945459  	96.897951 
2405.382366  	96.899551 
2406.819273  	96.890674 
2408.256180  	96.858908 
2409.693087  	96.899434 
2411.129994  	96.958150 
2412.566901  	96.962576 
2414.003809  	96.991167 
2415.440716  	97.018746 
2416.877623  	97.032506 
2418.314530  	97.059523 
2419.751437  	97.031660 
2421.188344  	97.000377 
2422.625251  	97.007982 
2424.062158  	97.016386 
2425.499065  	97.076066 
2426.935972  	97.131415 
2428.372879  	97.131109 
2429.809786  	97.156084 
2431.246693  	97.184019 
2432.683600  	97.210520 
2434.120507  	97.243786 
2435.557414  	97.228633 
2436.994321  	97.216528 
2438.431228  	97.208288 
2439.868135  	97.173484 
2441.305042  	97.182052 
2442.741949  	97.203409 
2444.178856  	97.192357 
2445.615763  	97.185806 
2447.052670  	97.203388 
2448.489577  	97.260487 
2449.926484  	97.298545 
2451.363391  	97.285338 
2452.800298  	97.274319 
2454.237205  	97.245841 
2455.674112  	97.230227 
2457.111019  	97.272825 
2458.547926  	97.304012 
2459.984833  	97.308722 
2461.421740  	97.310180 
2462.858648  	97.310940 
2464.295555  	97.313913 
2465.732462  	97.316034 
2467.169369  	97.357651 
2468.606276  	97.373993 
2470.043183  	97.311402 
2471.480090  	97.312546 
2472.916997  	97.343734 
2474.353904  	97.304559 
2475.790811  	97.316105 
2477.227718  	97.364957 
2478.664625  	97.344084 
2480.101532  	97.302387 
2481.538439  	97.318119 
2482.975346  	97.395123 
2484.412253  	97.426602 
2485.849160  	97.406611 
2487.286067  	97.429984 
2488.722974  	97.434238 
2490.159881  	97.421995 
2491.596788  	97.418010 
2493.033695  	97.364832 
2494.470602  	97.389538 
2495.907509  	97.473243 
2497.344416  	97.456086 
2498.781323  	97.454519 
2500.218230  	97.475250 
2501.655137  	97.433519 
2503.092044  	97.436935 
2504.528951  	97.457718 
2505.965858  	97.433043 
2507.402765  	97.422845 
2508.839672  	97.435472 
2510.276579  	97.465533 
2511.713486  	97.474016 
2513.150394  	97.461580 
2514.587301  	97.488571 
2516.024208  	97.513656 
2517.461115  	97.518756 
2518.898022  	97.504475 
2520.334929  	97.480181 
2521.771836  	97.518778 
2523.208743  	97.539181 
2524.645650  	97.508170 
2526.082557  	97.521318 
2527.519464  	97.504250 
2528.956371  	97.491316 
2530.393278  	97.565313 
2531.830185  	97.583526 
2533.267092  	97.548196 
2534.703999  	97.540660 
2536.140906  	97.539314 
2537.577813  	97.563033 
2539.014720  	97.554702 
2540.451627  	97.509549 
2541.888534  	97.513825 
2543.325441  	97.539482 
2544.762348  	97.585034 
2546.199255  	97.618097 
2547.636162  	97.589172 
2549.073069  	97.598743 
2550.509976  	97.621619 
2551.946883  	97.590530 
2553.383790  	97.594972 
2554.820697  	97.627683 
2556.257604  	97.618358 
2557.694511  	97.567032 
2559.131418  	97.532930 
2560.568325  	97.555337 
2562.005232  	97.547481 
2563.442140  	97.529421 
2564.879047  	97.576154 
2566.315954  	97.584864 
2567.752861  	97.567559 
2569.189768  	97.589693 
2570.626675  	97.584780 
2572.063582  	97.574528 
2573.500489  	97.564824 
2574.937396  	97.534261 
2576.374303  	97.545020 
2577.811210  	97.566021 
2579.248117  	97.557726 
2580.685024  	97.540737 
2582.121931  	97.532269 
2583.558838  	97.572037 
2584.995745  	97.595759 
2586.432652  	97.572735 
2587.869559  	97.579289 
2589.306466  	97.557832 
2590.743373  	97.507655 
2592.180280  	97.505608 
2593.617187  	97.492939 
2595.054094  	97.478608 
2596.491001  	97.497636 
2597.927908  	97.511543 
2599.364815  	97.538365 
2600.801722  	97.539366 
2602.238629  	97.500142 
2603.675536  	97.504471 
2605.112443  	97.511130 
2606.549350  	97.471462 
2607.986257  	97.458412 
2609.423164  	97.497361 
2610.860071  	97.519083 
2612.296979  	97.483705 
2613.733886  	97.470189 
2615.170793  	97.506119 
2616.607700  	97.511542 
2618.044607  	97.508292 
2619.481514  	97.521130 
2620.918421  	97.505671 
2622.355328  	97.487690 
2623.792235  	97.483855 
2625.229142  	97.491290 
2626.666049  	97.506475 
2628.102956  	97.491941 
2629.539863  	97.485566 
2630.976770  	97.500565 
2632.413677  	97.482292 
2633.850584  	97.478311 
2635.287491  	97.511625 
2636.724398  	97.518633 
2638.161305  	97.489976 
2639.598212  	97.456449 
2641.035119  	97.455746 
2642.472026  	97.470153 
2643.908933  	97.464230 
2645.345840  	97.481982 
2646.782747  	97.505516 
2648.219654  	97.486462 
2649.656561  	97.473271 
2651.093468  	97.472429 
2652.530375  	97.463463 
2653.967282  	97.462140 
2655.404189  	97.452560 
2656.841096  	97.450834 
2658.278003  	97.473281 
2659.714910  	97.471603 
2661.151817  	97.451802 
2662.588725  	97.461239 
2664.025632  	97.484187 
2665.462539  	97.483965 
2666.899446  	97.478178 
2668.336353  	97.499454 
2669.773260  	97.519006 
2671.210167  	97.511845 
2672.647074  	97.501255 
2674.083981  	97.496299 
2675.520888  	97.504148 
2676.957795  	97.512262 
2678.394702  	97.495595 
2679.831609  	97.488266 
2681.268516  	97.501556 
2682.705423  	97.508588 
2684.142330  	97.516600 
2685.579237  	97.519667 
2687.016144  	97.513797 
2688.453051  	97.500687 
2689.889958  	97.473843 
2691.326865  	97.471462 
2692.763772  	97.487332 
2694.200679  	97.478375 
2695.637586  	97.473286 
2697.074493  	97.471560 
2698.511400  	97.453410 
2699.948307  	97.448187 
2701.385214  	97.447242 
2702.822121  	97.439253 
2704.259028  	97.437933 
2705.695935  	97.440041 
2707.132842  	97.449877 
2708.569749  	97.447017 
2710.006656  	97.421309 
2711.443564  	97.412441 
2712.880471  	97.423570 
2714.317378  	97.431707 
2715.754285  	97.419663 
2717.191192  	97.393006 
2718.628099  	97.397526 
2720.065006  	97.416718 
2721.501913  	97.406541 
2722.938820  	97.386874 
2724.375727  	97.366397 
2725.812634  	97.354887 
2727.249541  	97.357735 
2728.686448  	97.339520 
2730.123355  	97.318110 
2731.560262  	97.312850 
2732.997169  	97.295940 
2734.434076  	97.286041 
2735.870983  	97.290959 
2737.307890  	97.280970 
2738.744797  	97.264646 
2740.181704  	97.256795 
2741.618611  	97.249755 
2743.055518  	97.237217 
2744.492425  	97.228808 
2745.929332  	97.218447 
2747.366239  	97.185711 
2748.803146  	97.166428 
2750.240053  	97.173521 
2751.676960  	97.164382 
2753.113867  	97.160214 
2754.550774  	97.163800 
2755.987681  	97.138551 
2757.424588  	97.116933 
2758.861495  	97.102972 
2760.298402  	97.080106 
2761.735310  	97.071264 
2763.172217  	97.052831 
2764.609124  	97.026456 
2766.046031  	97.031547 
2767.482938  	97.038039 
2768.919845  	97.011766 
2770.356752  	96.960705 
2771.793659  	96.929744 
2773.230566  	96.948805 
2774.667473  	96.953847 
2776.104380  	96.918559 
2777.541287  	96.893064 
2778.978194  	96.882885 
2780.415101  	96.885277 
2781.852008  	96.881531 
2783.288915  	96.848666 
2784.725822  	96.828411 
2786.162729  	96.815745 
2787.599636  	96.784572 
2789.036543  	96.770698 
2790.473450  	96.765524 
2791.910357  	96.753659 
2793.347264  	96.740103 
2794.784171  	96.698867 
2796.221078  	96.666901 
2797.657985  	96.668913 
2799.094892  	96.650657 
2800.531799  	96.631929 
2801.968706  	96.629705 
2803.405613  	96.592846 
2804.842520  	96.550328 
2806.279427  	96.539887 
2807.716334  	96.528347 
2809.153241  	96.511913 
2810.590148  	96.493012 
2812.027056  	96.453003 
2813.463963  	96.412176 
2814.900870  	96.395710 
2816.337777  	96.391910 
2817.774684  	96.380009 
2819.211591  	96.352851 
2820.648498  	96.320964 
2822.085405  	96.292406 
2823.522312  	96.262719 
2824.959219  	96.234937 
2826.396126  	96.206127 
2827.833033  	96.163179 
2829.269940  	96.120109 
2830.706847  	96.098520 
2832.143754  	96.084069 
2833.580661  	96.051774 
2835.017568  	96.009025 
2836.454475  	95.979539 
2837.891382  	95.954705 
2839.328289  	95.918299 
2840.765196  	95.889706 
2842.202103  	95.868366 
2843.639010  	95.827629 
2845.075917  	95.775613 
2846.512824  	95.728568 
2847.949731  	95.690205 
2849.386638  	95.654181 
2850.823545  	95.604815 
2852.260452  	95.561398 
2853.697359  	95.531779 
2855.134266  	95.494692 
2856.571173  	95.472042 
2858.008080  	95.456369 
2859.444987  	95.417002 
2860.881895  	95.384940 
2862.318802  	95.350703 
2863.755709  	95.294017 
2865.192616  	95.249619 
2866.629523  	95.205896 
2868.066430  	95.170456 
2869.503337  	95.167622 
2870.940244  	95.141136 
2872.377151  	95.089867 
2873.814058  	95.041476 
2875.250965  	94.974314 
2876.687872  	94.931797 
2878.124779  	94.914538 
2879.561686  	94.858188 
2880.998593  	94.797350 
2882.435500  	94.748525 
2883.872407  	94.682142 
2885.309314  	94.631498 
2886.746221  	94.595307 
2888.183128  	94.537004 
2889.620035  	94.468213 
2891.056942  	94.413202 
2892.493849  	94.368514 
2893.930756  	94.302329 
2895.367663  	94.228996 
2896.804570  	94.188243 
2898.241477  	94.144160 
2899.678384  	94.072865 
2901.115291  	93.997574 
2902.552198  	93.923885 
2903.989105  	93.857345 
2905.426012  	93.782024 
2906.862919  	93.707806 
2908.299826  	93.666225 
2909.736733  	93.604492 
2911.173641  	93.526350 
2912.610548  	93.484478 
2914.047455  	93.415982 
2915.484362  	93.318836 
2916.921269  	93.244539 
2918.358176  	93.152162 
2919.795083  	93.050260 
2921.231990  	92.953937 
2922.668897  	92.850789 
2924.105804  	92.794795 
2925.542711  	92.748614 
2926.979618  	92.650437 
2928.416525  	92.569575 
2929.853432  	92.520628 
2931.290339  	92.452965 
2932.727246  	92.362891 
2934.164153  	92.274512 
2935.601060  	92.223632 
2937.037967  	92.181857 
2938.474874  	92.099099 
2939.911781  	92.003363 
2941.348688  	91.928696 
2942.785595  	91.868483 
2944.222502  	91.776386 
2945.659409  	91.648661 
2947.096316  	91.563752 
2948.533223  	91.506641 
2949.970130  	91.418956 
2951.407037  	91.324089 
2952.843944  	91.212669 
2954.280851  	91.083940 
2955.717758  	90.966480 
2957.154665  	90.858933 
2958.591572  	90.790731 
2960.028479  	90.730637 
2961.465387  	90.634540 
2962.902294  	90.548833 
2964.339201  	90.443563 
2965.776108  	90.315921 
2967.213015  	90.236318 
2968.649922  	90.153105 
2970.086829  	90.045501 
2971.523736  	89.936672 
2972.960643  	89.793566 
2974.397550  	89.666766 
2975.834457  	89.583012 
2977.271364  	89.495903 
2978.708271  	89.395688 
2980.145178  	89.260540 
2981.582085  	89.121619 
2983.018992  	88.996893 
2984.455899  	88.848855 
2985.892806  	88.730729 
2987.329713  	88.609192 
2988.766620  	88.434840 
2990.203527  	88.326734 
2991.640434  	88.253054 
2993.077341  	88.115795 
2994.514248  	87.963043 
2995.951155  	87.796378 
2997.388062  	87.642561 
2998.824969  	87.529370 
3000.261876  	87.394226 
3001.698783  	87.259468 
3003.135690  	87.121708 
3004.572597  	86.941190 
3006.009504  	86.777879 
3007.446411  	86.633245 
3008.883318  	86.481189 
3010.320226  	86.335683 
3011.757133  	86.191044 
3013.194040  	86.051781 
3014.630947  	85.881055 
3016.067854  	85.690164 
3017.504761  	85.533643 
3018.941668  	85.356418 
3020.378575  	85.176948 
3021.815482  	85.032828 
3023.252389  	84.846336 
3024.689296  	84.644439 
3026.126203  	84.464060 
3027.563110  	84.280341 
3029.000017  	84.108847 
3030.436924  	83.912931 
3031.873831  	83.708097 
3033.310738  	83.526040 
3034.747645  	83.320567 
3036.184552  	83.142630 
3037.621459  	82.979589 
3039.058366  	82.767244 
3040.495273  	82.570925 
3041.932180  	82.379619 
3043.369087  	82.176033 
3044.805994  	81.974186 
3046.242901  	81.726770 
3047.679808  	81.507191 
3049.116715  	81.323276 
3050.553622  	81.102628 
3051.990529  	80.915738 
3053.427436  	80.714979 
3054.864343  	80.455026 
3056.301250  	80.229610 
3057.738157  	80.008414 
3059.175064  	79.776520 
3060.611972  	79.536890 
3062.048879  	79.266426 
3063.485786  	79.035028 
3064.922693  	78.804767 
3066.359600  	78.560264 
3067.796507  	78.354331 
3069.233414  	78.100366 
3070.670321  	77.837176 
3072.107228  	77.601083 
3073.544135  	77.324747 
3074.981042  	77.088201 
3076.417949  	76.850940 
3077.854856  	76.563632 
3079.291763  	76.309781 
3080.728670  	76.026598 
3082.165577  	75.766227 
3083.602484  	75.551300 
3085.039391  	75.243145 
3086.476298  	74.972754 
3087.913205  	74.757814 
3089.350112  	74.459930 
3090.787019  	74.177705 
3092.223926  	73.906484 
3093.660833  	73.615798 
3095.097740  	73.340803 
3096.534647  	73.037353 
3097.971554  	72.775605 
3099.408461  	72.499948 
3100.845368  	72.155739 
3102.282275  	71.897258 
3103.719182  	71.645254 
3105.156089  	71.357037 
3106.592996  	71.089043 
3108.029903  	70.749622 
3109.466811  	70.458912 
3110.903718  	70.218388 
3112.340625  	69.882218 
3113.777532  	69.575886 
3115.214439  	69.263842 
3116.651346  	68.917057 
3118.088253  	68.639035 
3119.525160  	68.314741 
3120.962067  	68.005149 
3122.398974  	67.761884 
3123.835881  	67.465107 
3125.272788  	67.183124 
3126.709695  	66.872984 
3128.146602  	66.541448 
3129.583509  	66.266128 
3131.020416  	65.912739 
3132.457323  	65.595582 
3133.894230  	65.346381 
3135.331137  	65.009263 
3136.768044  	64.737314 
3138.204951  	64.463301 
3139.641858  	64.131624 
3141.078765  	63.893552 
3142.515672  	63.580817 
3143.952579  	63.254779 
3145.389486  	63.011435 
3146.826393  	62.677538 
3148.263300  	62.400431 
3149.700207  	62.134535 
3151.137114  	61.778448 
3152.574021  	61.531656 
3154.010928  	61.242365 
3155.447835  	60.920482 
3156.884742  	60.701125 
3158.321649  	60.383376 
3159.758557  	60.097210 
3161.195464  	59.872633 
3162.632371  	59.544360 
3164.069278  	59.274917 
3165.506185  	59.006017 
3166.943092  	58.726170 
3168.379999  	58.520875 
3169.816906  	58.220965 
3171.253813  	57.960449 
3172.690720  	57.750001 
3174.127627  	57.435032 
3175.564534  	57.199546 
3177.001441  	56.963627 
3178.438348  	56.686248 
3179.875255  	56.490478 
3181.312162  	56.238488 
3182.749069  	56.025245 
3184.185976  	55.823178 
3185.622883  	55.518883 
3187.059790  	55.323273 
3188.496697  	55.114680 
3189.933604  	54.883348 
3191.370511  	54.744787 
3192.807418  	54.485448 
3194.244325  	54.288237 
3195.681232  	54.145984 
3197.118139  	53.851476 
3198.555046  	53.712250 
3199.991953  	53.574756 
3201.428860  	53.319562 
3202.865767  	53.207375 
3204.302674  	53.002236 
3205.739581  	52.807506 
3207.176488  	52.741362 
3208.613395  	52.494859 
3210.050303  	52.300572 
3211.487210  	52.184039 
3212.924117  	51.987783 
3214.361024  	51.914289 
3215.797931  	51.785302 
3217.234838  	51.620170 
3218.671745  	51.549996 
3220.108652  	51.385190 
3221.545559  	51.299838 
3222.982466  	51.227583 
3224.419373  	51.059509 
3225.856280  	51.034870 
3227.293187  	50.921894 
3228.730094  	50.752624 
3230.167001  	50.720368 
3231.603908  	50.575477 
3233.040815  	50.490453 
3234.477722  	50.473986 
3235.914629  	50.354184 
3237.351536  	50.339028 
3238.788443  	50.249109 
3240.225350  	50.125372 
3241.662257  	50.157438 
3243.099164  	50.055165 
3244.536071  	49.990582 
3245.972978  	50.019590 
3247.409885  	49.918347 
3248.846792  	49.916612 
3250.283699  	49.896607 
3251.720606  	49.821811 
3253.157513  	49.867147 
3254.594420  	49.803284 
3256.031327  	49.769961 
3257.468234  	49.780151 
3258.905142  	49.651585 
3260.342049  	49.676227 
3261.778956  	49.675055 
3263.215863  	49.561894 
3264.652770  	49.627995 
3266.089677  	49.615899 
3267.526584  	49.566504 
3268.963491  	49.588786 
3270.400398  	49.501173 
3271.837305  	49.519769 
3273.274212  	49.526907 
3274.711119  	49.441103 
3276.148026  	49.519738 
3277.584933  	49.511873 
3279.021840  	49.472515 
3280.458747  	49.527381 
3281.895654  	49.449277 
3283.332561  	49.452165 
3284.769468  	49.489582 
3286.206375  	49.441120 
3287.643282  	49.504654 
3289.080189  	49.451270 
3290.517096  	49.374327 
3291.954003  	49.452182 
3293.390910  	49.418803 
3294.827817  	49.433786 
3296.264724  	49.475086 
3297.701631  	49.413230 
3299.138538  	49.460377 
3300.575445  	49.439829 
3302.012352  	49.412454 
3303.449259  	49.482283 
3304.886166  	49.374544 
3306.323073  	49.347819 
3307.759980  	49.425454 
3309.196888  	49.381270 
3310.633795  	49.438551 
3312.070702  	49.455366 
3313.507609  	49.405095 
3314.944516  	49.426296 
3316.381423  	49.341871 
3317.818330  	49.350160 
3319.255237  	49.406765 
3320.692144  	49.356922 
3322.129051  	49.462309 
3323.565958  	49.470396 
3325.002865  	49.370949 
3326.439772  	49.439438 
3327.876679  	49.391242 
3329.313586  	49.363387 
3330.750493  	49.441147 
3332.187400  	49.399739 
3333.624307  	49.457781 
3335.061214  	49.492750 
3336.498121  	49.455162 
3337.935028  	49.537961 
3339.371935  	49.480525 
3340.808842  	49.440326 
3342.245749  	49.511399 
3343.682656  	49.461313 
3345.119563  	49.528691 
3346.556470  	49.603771 
3347.993377  	49.581986 
3349.430284  	49.668405 
3350.867191  	49.648510 
3352.304098  	49.659760 
3353.741005  	49.789449 
3355.177912  	49.796288 
3356.614819  	49.910287 
3358.051726  	49.998663 
3359.488634  	49.953696 
3360.925541  	50.048901 
3362.362448  	50.056177 
3363.799355  	50.072206 
3365.236262  	50.210176 
3366.673169  	50.186041 
3368.110076  	50.241796 
3369.546983  	50.331724 
3370.983890  	50.348399 
3372.420797  	50.537260 
3373.857704  	50.606262 
3375.294611  	50.635885 
3376.731518  	50.831550 
3378.168425  	50.872981 
3379.605332  	50.966787 
3381.042239  	51.129047 
3382.479146  	51.168329 
3383.916053  	51.324144 
3385.352960  	51.413109 
3386.789867  	51.478519 
3388.226774  	51.700671 
3389.663681  	51.765882 
3391.100588  	51.856700 
3392.537495  	52.028213 
3393.974402  	52.091562 
3395.411309  	52.275014 
3396.848216  	52.413090 
3398.285123  	52.506639 
3399.722030  	52.715435 
3401.158937  	52.792365 
3402.595844  	52.968232 
3404.032751  	53.233318 
3405.469658  	53.317906 
3406.906565  	53.495396 
3408.343473  	53.634641 
3409.780380  	53.725680 
3411.217287  	53.992047 
3412.654194  	54.125249 
3414.091101  	54.269478 
3415.528008  	54.530613 
3416.964915  	54.677345 
3418.401822  	54.924331 
3419.838729  	55.127405 
3421.275636  	55.239412 
3422.712543  	55.526370 
3424.149450  	55.708715 
3425.586357  	55.895166 
3427.023264  	56.149078 
3428.460171  	56.200726 
3429.897078  	56.379762 
3431.333985  	56.647066 
3432.770892  	56.802900 
3434.207799  	57.058555 
3435.644706  	57.218032 
3437.081613  	57.371985 
3438.518520  	57.673537 
3439.955427  	57.842309 
3441.392334  	58.069235 
3442.829241  	58.372229 
3444.266148  	58.556245 
3445.703055  	58.783147 
3447.139962  	58.955997 
3448.576869  	59.157181 
3450.013776  	59.462759 
3451.450683  	59.616266 
3452.887590  	59.789586 
3454.324497  	60.013835 
3455.761404  	60.208058 
3457.198311  	60.503955 
3458.635219  	60.674787 
3460.072126  	60.804250 
3461.509033  	61.087862 
3462.945940  	61.307717 
3464.382847  	61.582068 
3465.819754  	61.859270 
3467.256661  	61.979404 
3468.693568  	62.174040 
3470.130475  	62.382849 
3471.567382  	62.616963 
3473.004289  	62.917357 
3474.441196  	63.057759 
3475.878103  	63.235185 
3477.315010  	63.496509 
3478.751917  	63.675004 
3480.188824  	63.921332 
3481.625731  	64.169483 
3483.062638  	64.425769 
3484.499545  	64.702849 
3485.936452  	64.855121 
3487.373359  	65.102810 
3488.810266  	65.360866 
3490.247173  	65.512482 
3491.684080  	65.805691 
3493.120987  	65.997523 
3494.557894  	66.104865 
3495.994801  	66.358546 
3497.431708  	66.519230 
3498.868615  	66.747257 
3500.305522  	67.049526 
3501.742429  	67.188005 
3503.179336  	67.451630 
3504.616243  	67.762577 
3506.053150  	67.967117 
3507.490058  	68.229935 
3508.926965  	68.396767 
3510.363872  	68.588986 
3511.800779  	68.852503 
3513.237686  	69.017580 
3514.674593  	69.336717 
3516.111500  	69.646168 
3517.548407  	69.772438 
3518.985314  	69.974045 
3520.422221  	70.155917 
3521.859128  	70.367452 
3523.296035  	70.670365 
3524.732942  	70.851226 
3526.169849  	71.122156 
3527.606756  	71.444019 
3529.043663  	71.636295 
3530.480570  	71.886623 
3531.917477  	72.088251 
3533.354384  	72.259105 
3534.791291  	72.506893 
3536.228198  	72.697060 
3537.665105  	72.923581 
3539.102012  	73.117053 
3540.538919  	73.221575 
3541.975826  	73.468651 
3543.412733  	73.724597 
3544.849640  	73.928556 
3546.286547  	74.198335 
3547.723454  	74.436428 
3549.160361  	74.663687 
3550.597268  	74.878018 
3552.034175  	75.079739 
3553.471082  	75.341833 
3554.907989  	75.548152 
3556.344896  	75.748469 
3557.781804  	76.014072 
3559.218711  	76.223706 
3560.655618  	76.432828 
3562.092525  	76.652707 
3563.529432  	76.873950 
3564.966339  	77.185753 
3566.403246  	77.429045 
3567.840153  	77.575512 
3569.277060  	77.776339 
3570.713967  	77.969156 
3572.150874  	78.233515 
3573.587781  	78.479806 
3575.024688  	78.623406 
3576.461595  	78.866048 
3577.898502  	79.034472 
3579.335409  	79.150732 
3580.772316  	79.374708 
3582.209223  	79.502688 
3583.646130  	79.661598 
3585.083037  	79.914738 
3586.519944  	80.130068 
3587.956851  	80.505715 
3589.393758  	80.808652 
3590.830665  	80.941692 
3592.267572  	81.151449 
3593.704479  	81.297470 
3595.141386  	81.509168 
3596.578293  	81.810824 
3598.015200  	81.876069 
3599.452107  	81.910687 
3600.889014  	82.077768 
3602.325921  	82.310995 
3603.762828  	82.529936 
3605.199735  	82.661545 
3606.636642  	82.887823 
3608.073550  	83.180704 
3609.510457  	83.337086 
3610.947364  	83.582628 
3612.384271  	83.790463 
3613.821178  	83.911429 
3615.258085  	84.184866 
3616.694992  	84.380125 
3618.131899  	84.567466 
3619.568806  	84.845819 
3621.005713  	84.941223 
3622.442620  	85.130532 
3623.879527  	85.367779 
3625.316434  	85.469043 
3626.753341  	85.666655 
3628.190248  	85.910785 
3629.627155  	85.934656 
3631.064062  	86.100133 
3632.500969  	86.478056 
3633.937876  	86.886873 
3635.374783  	87.095708 
3636.811690  	87.220899 
3638.248597  	87.522589 
3639.685504  	87.735445 
3641.122411  	87.861751 
3642.559318  	88.046337 
3643.996225  	88.158432 
3645.433132  	88.423340 
3646.870039  	88.867728 
3648.306946  	89.109522 
3649.743853  	89.318441 
3651.180760  	89.666148 
3652.617667  	89.822014 
3654.054574  	90.070091 
3655.491481  	90.402094 
3656.928389  	90.631676 
3658.365296  	90.855916 
3659.802203  	91.234876 
3661.239110  	91.484851 
3662.676017  	91.536691 
3664.112924  	91.775444 
3665.549831  	92.034342 
3666.986738  	92.194286 
3668.423645  	92.460143 
3669.860552  	92.792549 
3671.297459  	92.928807 
3672.734366  	93.205595 
3674.171273  	93.551107 
3675.608180  	93.789859 
3677.045087  	93.929671 
3678.481994  	94.138440 
3679.918901  	94.317460 
3681.355808  	94.512952 
3682.792715  	94.765233 
3684.229622  	94.911970 
3685.666529  	95.003129 
3687.103436  	95.128931 
3688.540343  	95.213978 
3689.977250  	95.254030 
3691.414157  	95.429750 
3692.851064  	95.506188 
3694.287971  	95.657353 
3695.724878  	95.904175 
3697.161785  	95.979189 
3698.598692  	95.989605 
3700.035599  	96.126709 
3701.472506  	96.175379 
3702.909413  	96.166801 
3704.346320  	96.287424 
3705.783227  	96.373736 
3707.220135  	96.464939 
3708.657042  	96.567348 
3710.093949  	96.612501 
3711.530856  	96.639198 
3712.967763  	96.654784 
3714.404670  	96.679708 
3715.841577  	96.828068 
3717.278484  	96.973465 
3718.715391  	96.991496 
3720.152298  	97.038902 
3721.589205  	97.154324 
3723.026112  	97.087391 
3724.463019  	96.942815 
3725.899926  	96.995810 
3727.336833  	96.991480 
3728.773740  	96.963038 
3730.210647  	97.084056 
3731.647554  	97.125541 
3733.084461  	97.089952 
3734.521368  	97.278585 
3735.958275  	97.380282 
3737.395182  	97.208406 
3738.832089  	97.273001 
3740.268996  	97.341619 
3741.705903  	97.340766 
3743.142810  	97.539352 
3744.579717  	97.744228 
3746.016624  	97.385263 
3747.453531  	97.454599 
3748.890438  	97.677292 
3750.327345  	97.564779 
3751.764252  	97.433704 
3753.201159  	97.490505 
3754.638066  	97.466249 
3756.074973  	97.560920 
3757.511881  	97.672006 
3758.948788  	97.627693 
3760.385695  	97.589898 
3761.822602  	97.582589 
3763.259509  	97.637211 
3764.696416  	97.761175 
3766.133323  	97.706980 
3767.570230  	97.601578 
3769.007137  	97.718320 
3770.444044  	97.756019 
3771.880951  	97.589825 
3773.317858  	97.565975 
3774.754765  	97.598819 
3776.191672  	97.521467 
3777.628579  	97.614986 
3779.065486  	97.940727 
3780.502393  	97.830223 
3781.939300  	97.559253 
3783.376207  	97.762117 
3784.813114  	97.847346 
3786.250021  	97.648895 
3787.686928  	97.656106 
3789.123835  	97.634922 
3790.560742  	97.641300 
3791.997649  	97.738369 
3793.434556  	97.707961 
3794.871463  	97.678893 
3796.308370  	97.733479 
3797.745277  	97.702867 
3799.182184  	97.818903 
3800.619091  	98.058460 
3802.055998  	97.935565 
3803.492905  	97.619651 
3804.929812  	97.802489 
3806.366720  	97.975851 
3807.803627  	97.758313 
3809.240534  	97.637656 
3810.677441  	97.810624 
3812.114348  	97.844090 
3813.551255  	97.850653 
3814.988162  	98.076859 
3816.425069  	98.112334 
3817.861976  	97.720771 
3819.298883  	97.808784 
3820.735790  	98.091664 
3822.172697  	97.917082 
3823.609604  	97.693445 
3825.046511  	97.840033 
3826.483418  	97.941708 
3827.920325  	97.888028 
3829.357232  	97.965112 
3830.794139  	98.023408 
3832.231046  	97.877030 
3833.667953  	97.823290 
3835.104860  	97.883519 
3836.541767  	97.898306 
3837.978674  	97.914285 
3839.415581  	97.858164 
3840.852488  	97.902276 
3842.289395  	98.051333 
3843.726302  	97.998324 
3845.163209  	97.890212 
3846.600116  	97.964141 
3848.037023  	98.037996 
3849.473930  	98.031147 
3850.910837  	98.068028 
3852.347744  	98.214314 
3853.784651  	98.165751 
3855.221558  	97.728704 
3856.658466  	97.716653 
3858.095373  	97.815337 
3859.532280  	97.905936 
3860.969187  	97.979515 
3862.406094  	98.008473 
3863.843001  	98.122647 
3865.279908  	98.152645 
3866.716815  	97.975404 
3868.153722  	98.103297 
3869.590629  	98.245311 
3871.027536  	97.827610 
3872.464443  	97.787049 
3873.901350  	97.979765 
3875.338257  	97.883826 
3876.775164  	97.864598 
3878.212071  	98.028314 
3879.648978  	98.109388 
3881.085885  	97.971324 
3882.522792  	97.864267 
3883.959699  	98.024669 
3885.396606  	98.087883 
3886.833513  	97.837191 
3888.270420  	97.919459 
3889.707327  	98.101055 
3891.144234  	98.051446 
3892.581141  	97.903722 
3894.018048  	97.919078 
3895.454955  	98.009487 
3896.891862  	98.095614 
3898.328769  	98.114984 
3899.765676  	98.126532 
3901.202583  	98.126758 
3902.639490  	98.038854 
3904.076397  	97.966193 
3905.513305  	97.937403 
3906.950212  	97.949754 
3908.387119  	98.036461 
3909.824026  	98.105237 
3911.260933  	98.156084 
3912.697840  	98.170550 
3914.134747  	98.148476 
3915.571654  	98.115341 
3917.008561  	98.030722 
3918.445468  	97.986971 
3919.882375  	98.038594 
3921.319282  	97.992003 
3922.756189  	97.958266 
3924.193096  	98.030142 
3925.630003  	98.054153 
3927.066910  	98.046399 
3928.503817  	98.090113 
3929.940724  	98.105722 
3931.377631  	98.093951 
3932.814538  	98.032038 
3934.251445  	97.933142 
3935.688352  	97.955209 
3937.125259  	98.035211 
3938.562166  	98.041283 
3939.999073  	97.996060 
3941.435980  	98.004664 
3942.872887  	97.941643 
3944.309794  	97.877125 
3945.746701  	98.044177 
3947.183608  	98.202000 
3948.620515  	98.138475 
3950.057422  	98.083241 
3951.494329  	98.120862 
3952.931236  	98.074878 
3954.368143  	98.018746 
3955.805051  	98.037412 
3957.241958  	98.033284 
3958.678865  	98.030248 
3960.115772  	98.081595 
3961.552679  	98.145252 
3962.989586  	98.104587 
3964.426493  	98.058137 
3965.863400  	98.076844 
3967.300307  	98.091059 
3968.737214  	98.119467 
3970.174121  	98.122901 
3971.611028  	98.070440 
3973.047935  	98.069423 
3974.484842  	98.096277 
3975.921749  	98.124034 
3977.358656  	98.175816 
3978.795563  	98.150863 
3980.232470  	98.097491 
3981.669377  	98.108365 
3983.106284  	98.099719 
3984.543191  	98.078333 
3985.980098  	98.093794 
3987.417005  	98.128218 
3988.853912  	98.176234 
3990.290819  	98.177864 
3991.727726  	98.127013 
3993.164633  	98.105764 
3994.601540  	98.121943 
3996.038447  	98.144342 
3997.475354  	98.146258 
3998.912261  	98.151040 
4000.349168  	98.170977 