##TITLE=No Description
##DATA TYPE=INFRARED SPECTRUM
##XUNITS=1/CM
##YUNITS=%T
399.460154  	30.506679 
400.897061  	30.592073 
402.333968  	31.372317 
403.770875  	30.718900 
405.207782  	30.529547 
406.644689  	30.742249 
408.081596  	30.380047 
409.518503  	31.452720 
410.955410  	31.383230 
412.392317  	30.103152 
413.829224  	30.633957 
415.266131  	30.786358 
416.703038  	30.263906 
418.139945  	31.274871 
419.576852  	31.557466 
421.013759  	31.334203 
422.450666  	31.226726 
423.887574  	30.432981 
425.324481  	30.826070 
426.761388  	31.352282 
428.198295  	31.279572 
429.635202  	31.495403 
431.072109  	31.467983 
432.509016  	31.563267 
433.945923  	31.797952 
435.382830  	31.426809 
436.819737  	31.400479 
438.256644  	31.564930 
439.693551  	31.310174 
441.130458  	31.144179 
442.567365  	30.970087 
444.004272  	30.789000 
445.441179  	30.559546 
446.878086  	30.634523 
448.314993  	31.403562 
449.751900  	31.773617 
451.188807  	32.037469 
452.625714  	32.557745 
454.062621  	32.245103 
455.499528  	31.840802 
456.936435  	31.581185 
458.373342  	31.357831 
459.810249  	31.513862 
461.247156  	31.100436 
462.684063  	30.806507 
464.120970  	31.479046 
465.557877  	31.730203 
466.994784  	31.574291 
468.431691  	31.632546 
469.868598  	31.586354 
471.305505  	31.659583 
472.742413  	31.755880 
474.179320  	31.820923 
475.616227  	32.023321 
477.053134  	32.037762 
478.490041  	31.874251 
479.926948  	31.718598 
481.363855  	31.539389 
482.800762  	31.513395 
484.237669  	31.552731 
485.674576  	31.842500 
487.111483  	32.200137 
488.548390  	32.236693 
489.985297  	32.276176 
491.422204  	32.199106 
492.859111  	31.956139 
494.296018  	31.977682 
495.732925  	31.953672 
497.169832  	31.968239 
498.606739  	31.957605 
500.043646  	31.658916 
501.480553  	31.740276 
502.917460  	32.148228 
504.354367  	32.094575 
505.791274  	32.018437 
507.228181  	32.023518 
508.665088  	32.101065 
510.101995  	32.312356 
511.538902  	32.310543 
512.975809  	32.289193 
514.412716  	32.380849 
515.849623  	32.505836 
517.286530  	32.888069 
518.723437  	32.978401 
520.160344  	32.687078 
521.597251  	32.721815 
523.034159  	32.774985 
524.471066  	32.741842 
525.907973  	32.970862 
527.344880  	33.181640 
528.781787  	33.226280 
530.218694  	33.212602 
531.655601  	33.151370 
533.092508  	33.218971 
534.529415  	33.418867 
535.966322  	33.581943 
537.403229  	33.579402 
538.840136  	33.467220 
540.277043  	33.445659 
541.713950  	33.540731 
543.150857  	33.753779 
544.587764  	33.935650 
546.024671  	33.871531 
547.461578  	33.887810 
548.898485  	34.068480 
550.335392  	34.114486 
551.772299  	34.155394 
553.209206  	34.319059 
554.646113  	34.462159 
556.083020  	34.508826 
557.519927  	34.570344 
558.956834  	34.764797 
560.393741  	34.841124 
561.830648  	34.784475 
563.267555  	34.920146 
564.704462  	35.028213 
566.141369  	34.997852 
567.578276  	35.105686 
569.015183  	35.289761 
570.452090  	35.465339 
571.888997  	35.554166 
573.325905  	35.499728 
574.762812  	35.544350 
576.199719  	35.692875 
577.636626  	35.788665 
579.073533  	35.843775 
580.510440  	35.845466 
581.947347  	35.979131 
583.384254  	36.223810 
584.821161  	36.308528 
586.258068  	36.386625 
587.694975  	36.556166 
589.131882  	36.686313 
590.568789  	36.830120 
592.005696  	36.928172 
593.442603  	36.984115 
594.879510  	37.161325 
596.316417  	37.341906 
597.753324  	37.410550 
599.190231  	37.459701 
600.627138  	37.590027 
602.064045  	37.802498 
603.500952  	37.959008 
604.937859  	38.051253 
606.374766  	38.146271 
607.811673  	38.215974 
609.248580  	38.269891 
610.685487  	38.352831 
612.122394  	38.503215 
613.559301  	38.683876 
614.996208  	38.818217 
616.433115  	38.950497 
617.870022  	39.128962 
619.306929  	39.270538 
620.743836  	39.427008 
622.180744  	39.614405 
623.617651  	39.720485 
625.054558  	39.801138 
626.491465  	39.929684 
627.928372  	40.077792 
629.365279  	40.229855 
630.802186  	40.354701 
632.239093  	40.494263 
633.676000  	40.642330 
635.112907  	40.735522 
636.549814  	40.858043 
637.986721  	41.047329 
639.423628  	41.218063 
640.860535  	41.379195 
642.297442  	41.536563 
643.734349  	41.646437 
645.171256  	41.792661 
646.608163  	41.971660 
648.045070  	42.148892 
649.481977  	42.321715 
650.918884  	42.493818 
652.355791  	42.653642 
653.792698  	42.794884 
655.229605  	42.936818 
656.666512  	43.118726 
658.103419  	43.249801 
659.540326  	43.400622 
660.977233  	43.582286 
662.414140  	43.781654 
663.851047  	44.018761 
665.287954  	44.145686 
666.724861  	44.243434 
668.161768  	44.485135 
669.598675  	44.743477 
671.035582  	44.846626 
672.472490  	44.997124 
673.909397  	45.193189 
675.346304  	45.368660 
676.783211  	45.526393 
678.220118  	45.722193 
679.657025  	45.929200 
681.093932  	46.128856 
682.530839  	46.310505 
683.967746  	46.479035 
685.404653  	46.654173 
686.841560  	46.858339 
688.278467  	47.078254 
689.715374  	47.271506 
691.152281  	47.428143 
692.589188  	47.586208 
694.026095  	47.760856 
695.463002  	47.975103 
696.899909  	48.194726 
698.336816  	48.382053 
699.773723  	48.577658 
701.210630  	48.786495 
702.647537  	48.966175 
704.084444  	49.160999 
705.521351  	49.388876 
706.958258  	49.599178 
708.395165  	49.798602 
709.832072  	49.987259 
711.268979  	50.184763 
712.705886  	50.411209 
714.142793  	50.611565 
715.579700  	50.804668 
717.016607  	51.043338 
718.453514  	51.253841 
719.890421  	51.427843 
721.327328  	51.635543 
722.764236  	51.873740 
724.201143  	52.117371 
725.638050  	52.370122 
727.074957  	52.599961 
728.511864  	52.806901 
729.948771  	52.993701 
731.385678  	53.182039 
732.822585  	53.407912 
734.259492  	53.645577 
735.696399  	53.868939 
737.133306  	54.074555 
738.570213  	54.273572 
740.007120  	54.531646 
741.444027  	54.788298 
742.880934  	54.915057 
744.317841  	55.079074 
745.754748  	55.418846 
747.191655  	55.733232 
748.628562  	55.956438 
750.065469  	56.169817 
751.502376  	56.336263 
752.939283  	56.533192 
754.376190  	56.799130 
755.813097  	57.029151 
757.250004  	57.279506 
758.686911  	57.535507 
760.123818  	57.709003 
761.560725  	57.937405 
762.997632  	58.220821 
764.434539  	58.418977 
765.871446  	58.605249 
767.308353  	58.836283 
768.745260  	59.077491 
770.182167  	59.337229 
771.619075  	59.592843 
773.055982  	59.842124 
774.492889  	60.099163 
775.929796  	60.340543 
777.366703  	60.573271 
778.803610  	60.826111 
780.240517  	61.106136 
781.677424  	61.358378 
783.114331  	61.561349 
784.551238  	61.798413 
785.988145  	62.061744 
787.425052  	62.282226 
788.861959  	62.489666 
790.298866  	62.740692 
791.735773  	63.059703 
793.172680  	63.359681 
794.609587  	63.561294 
796.046494  	63.759706 
797.483401  	63.975045 
798.920308  	64.183705 
800.357215  	64.450846 
801.794122  	64.716320 
803.231029  	64.959591 
804.667936  	65.250543 
806.104843  	65.503701 
807.541750  	65.705850 
808.978657  	65.952347 
810.415564  	66.218106 
811.852471  	66.462305 
813.289378  	66.691950 
814.726285  	66.950757 
816.163192  	67.270634 
817.600099  	67.591680 
819.037006  	67.867224 
820.473913  	68.087843 
821.910821  	68.291955 
823.347728  	68.543774 
824.784635  	68.794972 
826.221542  	69.023138 
827.658449  	69.281840 
829.095356  	69.544436 
830.532263  	69.788895 
831.969170  	70.023987 
833.406077  	70.238060 
834.842984  	70.432953 
836.279891  	70.642027 
837.716798  	70.913205 
839.153705  	71.187170 
840.590612  	71.431908 
842.027519  	71.730594 
843.464426  	72.002815 
844.901333  	72.228974 
846.338240  	72.530131 
847.775147  	72.789949 
849.212054  	72.994556 
850.648961  	73.281333 
852.085868  	73.540395 
853.522775  	73.736363 
854.959682  	73.972454 
856.396589  	74.244174 
857.833496  	74.514495 
859.270403  	74.730477 
860.707310  	74.937206 
862.144217  	75.184104 
863.581124  	75.404681 
865.018031  	75.647155 
866.454938  	75.904110 
867.891845  	76.112784 
869.328752  	76.360579 
870.765660  	76.587755 
872.202567  	76.760818 
873.639474  	77.015922 
875.076381  	77.292649 
876.513288  	77.514166 
877.950195  	77.712881 
879.387102  	77.916924 
880.824009  	78.161397 
882.260916  	78.376179 
883.697823  	78.583616 
885.134730  	78.844748 
886.571637  	79.028679 
888.008544  	79.177353 
889.445451  	79.381409 
890.882358  	79.573802 
892.319265  	79.791822 
893.756172  	79.999879 
895.193079  	80.167299 
896.629986  	80.367167 
898.066893  	80.525363 
899.503800  	80.677544 
900.940707  	80.882587 
902.377614  	81.048195 
903.814521  	81.232019 
905.251428  	81.422109 
906.688335  	81.571095 
908.125242  	81.774798 
909.562149  	81.952672 
910.999056  	82.089561 
912.435963  	82.268849 
913.872870  	82.412648 
915.309777  	82.582375 
916.746684  	82.798082 
918.183591  	82.949778 
919.620498  	83.114480 
921.057406  	83.292532 
922.494313  	83.424349 
923.931220  	83.555312 
925.368127  	83.679018 
926.805034  	83.818583 
928.241941  	83.959691 
929.678848  	84.077011 
931.115755  	84.224883 
932.552662  	84.349774 
933.989569  	84.468738 
935.426476  	84.630542 
936.863383  	84.743905 
938.300290  	84.855251 
939.737197  	84.990297 
941.174104  	85.106906 
942.611011  	85.251718 
944.047918  	85.334790 
945.484825  	85.385736 
946.921732  	85.526640 
948.358639  	85.639216 
949.795546  	85.735108 
951.232453  	85.849345 
952.669360  	85.908897 
954.106267  	86.025915 
955.543174  	86.169608 
956.980081  	86.243271 
958.416988  	86.332829 
959.853895  	86.419508 
961.290802  	86.517448 
962.727709  	86.633052 
964.164616  	86.696359 
965.601523  	86.791929 
967.038430  	86.872325 
968.475337  	86.889076 
969.912244  	86.968613 
971.349152  	87.042162 
972.786059  	87.105936 
974.222966  	87.222819 
975.659873  	87.288233 
977.096780  	87.353180 
978.533687  	87.420427 
979.970594  	87.433330 
981.407501  	87.509771 
982.844408  	87.590147 
984.281315  	87.643738 
985.718222  	87.752194 
987.155129  	87.793305 
988.592036  	87.802398 
990.028943  	87.886076 
991.465850  	87.961966 
992.902757  	88.024329 
994.339664  	88.056012 
995.776571  	88.066454 
997.213478  	88.117126 
998.650385  	88.142901 
1000.087292  	88.184882 
1001.524199  	88.261405 
1002.961106  	88.260074 
1004.398013  	88.251707 
1005.834920  	88.280296 
1007.271827  	88.305855 
1008.708734  	88.352453 
1010.145641  	88.374427 
1011.582548  	88.402075 
1013.019455  	88.476556 
1014.456362  	88.530211 
1015.893269  	88.580848 
1017.330176  	88.608796 
1018.767083  	88.620483 
1020.203991  	88.694502 
1021.640898  	88.734685 
1023.077805  	88.737919 
1024.514712  	88.799522 
1025.951619  	88.836307 
1027.388526  	88.835885 
1028.825433  	88.850823 
1030.262340  	88.859591 
1031.699247  	88.852990 
1033.136154  	88.816839 
1034.573061  	88.803021 
1036.009968  	88.834109 
1037.446875  	88.836875 
1038.883782  	88.840549 
1040.320689  	88.875851 
1041.757596  	88.927662 
1043.194503  	88.988921 
1044.631410  	89.007347 
1046.068317  	89.036626 
1047.505224  	89.111110 
1048.942131  	89.153289 
1050.379038  	89.187833 
1051.815945  	89.216125 
1053.252852  	89.247976 
1054.689759  	89.312222 
1056.126666  	89.308999 
1057.563573  	89.318733 
1059.000480  	89.413801 
1060.437387  	89.438043 
1061.874294  	89.458330 
1063.311201  	89.523181 
1064.748108  	89.507352 
1066.185015  	89.488621 
1067.621922  	89.514416 
1069.058829  	89.547359 
1070.495737  	89.593978 
1071.932644  	89.596655 
1073.369551  	89.586751 
1074.806458  	89.597795 
1076.243365  	89.594919 
1077.680272  	89.600557 
1079.117179  	89.584147 
1080.554086  	89.585780 
1081.990993  	89.635868 
1083.427900  	89.619766 
1084.864807  	89.603355 
1086.301714  	89.636053 
1087.738621  	89.630384 
1089.175528  	89.636556 
1090.612435  	89.632968 
1092.049342  	89.600141 
1093.486249  	89.612890 
1094.923156  	89.617332 
1096.360063  	89.639648 
1097.796970  	89.700626 
1099.233877  	89.709450 
1100.670784  	89.721227 
1102.107691  	89.729436 
1103.544598  	89.707704 
1104.981505  	89.741693 
1106.418412  	89.767800 
1107.855319  	89.763192 
1109.292226  	89.779941 
1110.729133  	89.777154 
1112.166040  	89.789898 
1113.602947  	89.811329 
1115.039854  	89.817213 
1116.476761  	89.859566 
1117.913668  	89.872994 
1119.350575  	89.864212 
1120.787483  	89.893750 
1122.224390  	89.907829 
1123.661297  	89.930559 
1125.098204  	89.937012 
1126.535111  	89.906400 
1127.972018  	89.939727 
1129.408925  	89.963049 
1130.845832  	89.938149 
1132.282739  	89.953739 
1133.719646  	89.955944 
1135.156553  	89.949677 
1136.593460  	89.962402 
1138.030367  	89.959176 
1139.467274  	89.988856 
1140.904181  	90.002054 
1142.341088  	89.960635 
1143.777995  	89.949576 
1145.214902  	89.948466 
1146.651809  	89.949573 
1148.088716  	89.966552 
1149.525623  	89.959137 
1150.962530  	89.957745 
1152.399437  	89.957384 
1153.836344  	89.945317 
1155.273251  	89.946063 
1156.710158  	89.930918 
1158.147065  	89.929868 
1159.583972  	89.939904 
1161.020879  	89.918087 
1162.457786  	89.918009 
1163.894693  	89.911366 
1165.331600  	89.888368 
1166.768507  	89.908001 
1168.205414  	89.903626 
1169.642322  	89.892991 
1171.079229  	89.918644 
1172.516136  	89.907974 
1173.953043  	89.900187 
1175.389950  	89.901991 
1176.826857  	89.875268 
1178.263764  	89.880709 
1179.700671  	89.880726 
1181.137578  	89.862193 
1182.574485  	89.878598 
1184.011392  	89.872983 
1185.448299  	89.852825 
1186.885206  	89.847887 
1188.322113  	89.830010 
1189.759020  	89.829986 
1191.195927  	89.834151 
1192.632834  	89.827207 
1194.069741  	89.831114 
1195.506648  	89.821496 
1196.943555  	89.819729 
1198.380462  	89.817393 
1199.817369  	89.789097 
1201.254276  	89.793045 
1202.691183  	89.807288 
1204.128090  	89.802775 
1205.564997  	89.800700 
1207.001904  	89.774593 
1208.438811  	89.767734 
1209.875718  	89.785941 
1211.312625  	89.776756 
1212.749532  	89.797589 
1214.186439  	89.819346 
1215.623346  	89.781326 
1217.060253  	89.755983 
1218.497160  	89.757087 
1219.934068  	89.768793 
1221.370975  	89.787701 
1222.807882  	89.781620 
1224.244789  	89.780524 
1225.681696  	89.779264 
1227.118603  	89.756750 
1228.555510  	89.754847 
1229.992417  	89.754854 
1231.429324  	89.755843 
1232.866231  	89.779387 
1234.303138  	89.770971 
1235.740045  	89.737689 
1237.176952  	89.729956 
1238.613859  	89.738682 
1240.050766  	89.739288 
1241.487673  	89.729288 
1242.924580  	89.733419 
1244.361487  	89.726241 
1245.798394  	89.686758 
1247.235301  	89.669521 
1248.672208  	89.667893 
1250.109115  	89.671211 
1251.546022  	89.693518 
1252.982929  	89.681015 
1254.419836  	89.652947 
1255.856743  	89.649169 
1257.293650  	89.634081 
1258.730557  	89.622842 
1260.167464  	89.622328 
1261.604371  	89.627287 
1263.041278  	89.641948 
1264.478185  	89.622824 
1265.915092  	89.607921 
1267.351999  	89.626185 
1268.788907  	89.616629 
1270.225814  	89.602468 
1271.662721  	89.596694 
1273.099628  	89.588653 
1274.536535  	89.598409 
1275.973442  	89.580641 
1277.410349  	89.554929 
1278.847256  	89.551556 
1280.284163  	89.527292 
1281.721070  	89.526684 
1283.157977  	89.542211 
1284.594884  	89.535841 
1286.031791  	89.561423 
1287.468698  	89.576913 
1288.905605  	89.574539 
1290.342512  	89.605187 
1291.779419  	89.613897 
1293.216326  	89.620968 
1294.653233  	89.631970 
1296.090140  	89.607024 
1297.527047  	89.614565 
1298.963954  	89.634984 
1300.400861  	89.644513 
1301.837768  	89.646427 
1303.274675  	89.669929 
1304.711582  	89.658089 
1306.148489  	89.678199 
1307.585396  	89.668896 
1309.022303  	89.683919 
1310.459210  	89.715792 
1311.896117  	89.696134 
1313.333024  	89.685099 
1314.769931  	89.687576 
1316.206838  	89.691162 
1317.643745  	89.696991 
1319.080653  	89.676228 
1320.517560  	89.682188 
1321.954467  	89.695263 
1323.391374  	89.688857 
1324.828281  	89.725818 
1326.265188  	89.738509 
1327.702095  	89.714333 
1329.139002  	89.703642 
1330.575909  	89.687791 
1332.012816  	89.666740 
1333.449723  	89.649971 
1334.886630  	89.627193 
1336.323537  	89.622682 
1337.760444  	89.609349 
1339.197351  	89.581266 
1340.634258  	89.595660 
1342.071165  	89.605678 
1343.508072  	89.605327 
1344.944979  	89.593472 
1346.381886  	89.572349 
1347.818793  	89.568154 
1349.255700  	89.549173 
1350.692607  	89.527408 
1352.129514  	89.521052 
1353.566421  	89.499694 
1355.003328  	89.462411 
1356.440235  	89.460635 
1357.877142  	89.459326 
1359.314049  	89.454922 
1360.750956  	89.432254 
1362.187863  	89.381595 
1363.624770  	89.348116 
1365.061677  	89.328374 
1366.498584  	89.312367 
1367.935491  	89.283426 
1369.372399  	89.222230 
1370.809306  	89.189179 
1372.246213  	89.178803 
1373.683120  	89.119487 
1375.120027  	89.073262 
1376.556934  	89.049783 
1377.993841  	89.019263 
1379.430748  	88.996996 
1380.867655  	88.960758 
1382.304562  	88.936448 
1383.741469  	88.921165 
1385.178376  	88.878192 
1386.615283  	88.836774 
1388.052190  	88.810198 
1389.489097  	88.812900 
1390.926004  	88.837362 
1392.362911  	88.840179 
1393.799818  	88.848201 
1395.236725  	88.848627 
1396.673632  	88.849933 
1398.110539  	88.887672 
1399.547446  	88.921930 
1400.984353  	88.942499 
1402.421260  	88.984613 
1403.858167  	88.989066 
1405.295074  	88.964416 
1406.731981  	89.005406 
1408.168888  	89.053716 
1409.605795  	89.071306 
1411.042702  	89.084501 
1412.479609  	89.108712 
1413.916516  	89.143660 
1415.353423  	89.143445 
1416.790330  	89.146587 
1418.227238  	89.201002 
1419.664145  	89.199493 
1421.101052  	89.214484 
1422.537959  	89.239015 
1423.974866  	89.224731 
1425.411773  	89.249864 
1426.848680  	89.302475 
1428.285587  	89.307962 
1429.722494  	89.295244 
1431.159401  	89.276450 
1432.596308  	89.277670 
1434.033215  	89.305072 
1435.470122  	89.329125 
1436.907029  	89.328986 
1438.343936  	89.308507 
1439.780843  	89.311081 
1441.217750  	89.333314 
1442.654657  	89.323984 
1444.091564  	89.339085 
1445.528471  	89.357544 
1446.965378  	89.321136 
1448.402285  	89.305407 
1449.839192  	89.321031 
1451.276099  	89.317833 
1452.713006  	89.305855 
1454.149913  	89.285717 
1455.586820  	89.250344 
1457.023727  	89.136869 
1458.460634  	89.128259 
1459.897541  	89.247764 
1461.334448  	89.290373 
1462.771355  	89.275854 
1464.208262  	89.246365 
1465.645169  	89.175068 
1467.082076  	89.151473 
1468.518984  	89.173133 
1469.955891  	89.190218 
1471.392798  	89.206739 
1472.829705  	89.105134 
1474.266612  	89.052867 
1475.703519  	89.101363 
1477.140426  	89.099894 
1478.577333  	89.097575 
1480.014240  	89.121255 
1481.451147  	89.076728 
1482.888054  	89.035345 
1484.324961  	89.034213 
1485.761868  	89.001113 
1487.198775  	88.975822 
1488.635682  	88.943830 
1490.072589  	88.885380 
1491.509496  	88.850144 
1492.946403  	88.806578 
1494.383310  	88.813823 
1495.820217  	88.841126 
1497.257124  	88.775468 
1498.694031  	88.729182 
1500.130938  	88.660254 
1501.567845  	88.598078 
1503.004752  	88.591924 
1504.441659  	88.591830 
1505.878566  	88.608600 
1507.315473  	88.455134 
1508.752380  	88.286932 
1510.189287  	88.333583 
1511.626194  	88.334917 
1513.063101  	88.292926 
1514.500008  	88.273274 
1515.936915  	88.201575 
1517.373822  	88.076516 
1518.810730  	88.069944 
1520.247637  	88.060979 
1521.684544  	88.025681 
1523.121451  	87.958391 
1524.558358  	87.900908 
1525.995265  	87.836127 
1527.432172  	87.712939 
1528.869079  	87.685418 
1530.305986  	87.665131 
1531.742893  	87.546515 
1533.179800  	87.433130 
1534.616707  	87.244886 
1536.053614  	87.130499 
1537.490521  	87.162011 
1538.927428  	87.174464 
1540.364335  	86.992481 
1541.801242  	86.769309 
1543.238149  	86.539073 
1544.675056  	86.425214 
1546.111963  	86.348907 
1547.548870  	86.263881 
1548.985777  	86.165322 
1550.422684  	85.882033 
1551.859591  	85.683743 
1553.296498  	85.607422 
1554.733405  	85.391986 
1556.170312  	85.275695 
1557.607219  	85.295538 
1559.044126  	85.017474 
1560.481033  	84.783625 
1561.917940  	84.674728 
1563.354847  	84.536879 
1564.791754  	84.409288 
1566.228661  	84.176786 
1567.665569  	84.038390 
1569.102476  	83.872743 
1570.539383  	83.589047 
1571.976290  	83.554278 
1573.413197  	83.451938 
1574.850104  	83.269768 
1576.287011  	83.091646 
1577.723918  	82.820058 
1579.160825  	82.641927 
1580.597732  	82.494434 
1582.034639  	82.251584 
1583.471546  	82.045353 
1584.908453  	81.798550 
1586.345360  	81.493168 
1587.782267  	81.364062 
1589.219174  	81.129938 
1590.656081  	80.855391 
1592.092988  	80.608626 
1593.529895  	80.239886 
1594.966802  	79.910481 
1596.403709  	79.575412 
1597.840616  	79.196128 
1599.277523  	78.932258 
1600.714430  	78.504400 
1602.151337  	78.045670 
1603.588244  	77.609522 
1605.025151  	77.126176 
1606.462058  	76.717401 
1607.898965  	76.290002 
1609.335872  	75.763612 
1610.772779  	75.299804 
1612.209686  	74.793638 
1613.646593  	74.254545 
1615.083500  	73.870377 
1616.520407  	73.328409 
1617.957315  	72.835250 
1619.394222  	72.426351 
1620.831129  	71.853240 
1622.268036  	71.479487 
1623.704943  	71.136280 
1625.141850  	70.718434 
1626.578757  	70.472497 
1628.015664  	70.055355 
1629.452571  	69.757398 
1630.889478  	69.638788 
1632.326385  	69.331272 
1633.763292  	69.192043 
1635.200199  	69.262699 
1636.637106  	69.302354 
1638.074013  	69.434712 
1639.510920  	69.424520 
1640.947827  	69.531696 
1642.384734  	69.759322 
1643.821641  	69.783675 
1645.258548  	69.886042 
1646.695455  	70.194689 
1648.132362  	70.584421 
1649.569269  	71.002574 
1651.006176  	71.126850 
1652.443083  	71.109018 
1653.879990  	72.233798 
1655.316897  	72.640619 
1656.753804  	72.860687 
1658.190711  	73.323987 
1659.627618  	73.723132 
1661.064525  	74.141165 
1662.501432  	74.560590 
1663.938339  	74.976687 
1665.375246  	75.476486 
1666.812154  	75.809747 
1668.249061  	76.188494 
1669.685968  	76.884077 
1671.122875  	77.433881 
1672.559782  	77.899670 
1673.996689  	78.289495 
1675.433596  	78.686790 
1676.870503  	79.420395 
1678.307410  	79.802563 
1679.744317  	80.159607 
1681.181224  	80.638150 
1682.618131  	80.980531 
1684.055038  	81.358941 
1685.491945  	82.148532 
1686.928852  	82.491295 
1688.365759  	82.901913 
1689.802666  	83.345039 
1691.239573  	83.700990 
1692.676480  	84.149003 
1694.113387  	84.482838 
1695.550294  	84.796644 
1696.987201  	85.212690 
1698.424108  	85.461533 
1699.861015  	85.803306 
1701.297922  	86.283078 
1702.734829  	86.529600 
1704.171736  	86.848975 
1705.608643  	87.156470 
1707.045550  	87.415945 
1708.482457  	87.745252 
1709.919364  	87.978794 
1711.356271  	88.263513 
1712.793178  	88.598647 
1714.230085  	88.839330 
1715.666992  	89.122657 
1717.103900  	89.413511 
1718.540807  	89.634980 
1719.977714  	89.968992 
1721.414621  	90.213465 
1722.851528  	90.475819 
1724.288435  	90.761978 
1725.725342  	90.979280 
1727.162249  	91.227918 
1728.599156  	91.374879 
1730.036063  	91.448585 
1731.472970  	91.615217 
1732.909877  	91.771091 
1734.346784  	91.847359 
1735.783691  	92.019258 
1737.220598  	92.161201 
1738.657505  	92.312704 
1740.094412  	92.392780 
1741.531319  	92.441632 
1742.968226  	92.560778 
1744.405133  	92.630154 
1745.842040  	92.789509 
1747.278947  	92.990058 
1748.715854  	93.036006 
1750.152761  	93.148731 
1751.589668  	93.279861 
1753.026575  	93.319495 
1754.463482  	93.490688 
1755.900389  	93.632660 
1757.337296  	93.618245 
1758.774203  	93.725679 
1760.211110  	93.809989 
1761.648017  	93.848245 
1763.084924  	93.907319 
1764.521831  	93.988014 
1765.958738  	94.145077 
1767.395646  	94.185425 
1768.832553  	94.169805 
1770.269460  	94.271646 
1771.706367  	94.273276 
1773.143274  	94.203777 
1774.580181  	94.330462 
1776.017088  	94.397971 
1777.453995  	94.428236 
1778.890902  	94.467272 
1780.327809  	94.487935 
1781.764716  	94.551546 
1783.201623  	94.591975 
1784.638530  	94.614717 
1786.075437  	94.676358 
1787.512344  	94.697867 
1788.949251  	94.754835 
1790.386158  	94.803407 
1791.823065  	94.769728 
1793.259972  	94.785514 
1794.696879  	94.801230 
1796.133786  	94.840602 
1797.570693  	94.934692 
1799.007600  	94.989411 
1800.444507  	95.029067 
1801.881414  	95.049709 
1803.318321  	95.023995 
1804.755228  	95.080258 
1806.192135  	95.125262 
1807.629042  	95.134287 
1809.065949  	95.181805 
1810.502856  	95.184504 
1811.939763  	95.163679 
1813.376670  	95.213390 
1814.813577  	95.281415 
1816.250485  	95.336934 
1817.687392  	95.297051 
1819.124299  	95.281196 
1820.561206  	95.332434 
1821.998113  	95.298046 
1823.435020  	95.333041 
1824.871927  	95.381797 
1826.308834  	95.309695 
1827.745741  	95.371125 
1829.182648  	95.421962 
1830.619555  	95.316837 
1832.056462  	95.396071 
1833.493369  	95.483053 
1834.930276  	95.465520 
1836.367183  	95.416452 
1837.804090  	95.352253 
1839.240997  	95.367453 
1840.677904  	95.363553 
1842.114811  	95.382845 
1843.551718  	95.501028 
1844.988625  	95.389015 
1846.425532  	95.345402 
1847.862439  	95.486621 
1849.299346  	95.456351 
1850.736253  	95.456060 
1852.173160  	95.562054 
1853.610067  	95.535729 
1855.046974  	95.515867 
1856.483881  	95.515920 
1857.920788  	95.530887 
1859.357695  	95.571657 
1860.794602  	95.499845 
1862.231509  	95.497760 
1863.668416  	95.550664 
1865.105323  	95.514530 
1866.542231  	95.527438 
1867.979138  	95.476949 
1869.416045  	95.381461 
1870.852952  	95.444740 
1872.289859  	95.455498 
1873.726766  	95.522278 
1875.163673  	95.625136 
1876.600580  	95.579355 
1878.037487  	95.567807 
1879.474394  	95.518566 
1880.911301  	95.468494 
1882.348208  	95.558110 
1883.785115  	95.550930 
1885.222022  	95.520304 
1886.658929  	95.542078 
1888.095836  	95.536490 
1889.532743  	95.579787 
1890.969650  	95.578634 
1892.406557  	95.575081 
1893.843464  	95.623042 
1895.280371  	95.616245 
1896.717278  	95.586208 
1898.154185  	95.563620 
1899.591092  	95.523524 
1901.027999  	95.571838 
1902.464906  	95.595118 
1903.901813  	95.544429 
1905.338720  	95.612802 
1906.775627  	95.624704 
1908.212534  	95.592265 
1909.649441  	95.616286 
1911.086348  	95.603969 
1912.523255  	95.614705 
1913.960162  	95.569075 
1915.397069  	95.537633 
1916.833977  	95.604538 
1918.270884  	95.581074 
1919.707791  	95.575716 
1921.144698  	95.610917 
1922.581605  	95.469060 
1924.018512  	95.499608 
1925.455419  	95.632415 
1926.892326  	95.601173 
1928.329233  	95.594147 
1929.766140  	95.546437 
1931.203047  	95.529138 
1932.639954  	95.575363 
1934.076861  	95.523367 
1935.513768  	95.522190 
1936.950675  	95.526100 
1938.387582  	95.410136 
1939.824489  	95.436035 
1941.261396  	95.464022 
1942.698303  	95.397604 
1944.135210  	95.408640 
1945.572117  	95.306153 
1947.009024  	95.246671 
1948.445931  	95.376551 
1949.882838  	95.375856 
1951.319745  	95.459448 
1952.756652  	95.337239 
1954.193559  	95.145775 
1955.630466  	95.271702 
1957.067373  	95.196891 
1958.504280  	95.239881 
1959.941187  	95.385432 
1961.378094  	95.092856 
1962.815001  	95.141860 
1964.251908  	95.286753 
1965.688816  	95.070694 
1967.125723  	95.023912 
1968.562630  	94.912238 
1969.999537  	94.951759 
1971.436444  	95.058858 
1972.873351  	94.946158 
1974.310258  	94.945116 
1975.747165  	95.004839 
1977.184072  	94.906939 
1978.620979  	94.861732 
1980.057886  	94.734007 
1981.494793  	94.668369 
1982.931700  	94.676178 
1984.368607  	94.548058 
1985.805514  	94.613558 
1987.242421  	94.726862 
1988.679328  	94.690010 
1990.116235  	94.739493 
1991.553142  	94.787747 
1992.990049  	94.770743 
1994.426956  	94.764824 
1995.863863  	94.708826 
1997.300770  	94.821705 
1998.737677  	95.032967 
2000.174584  	94.931271 
2001.611491  	95.022572 
2003.048398  	95.049303 
2004.485305  	94.994942 
2005.922212  	95.138768 
2007.359119  	95.023077 
2008.796026  	94.895128 
2010.232933  	94.786332 
2011.669840  	94.762691 
2013.106747  	95.183560 
2014.543654  	95.125257 
2015.980562  	94.701604 
2017.417469  	94.638215 
2018.854376  	94.602325 
2020.291283  	94.765384 
2021.728190  	94.818422 
2023.165097  	94.710529 
2024.602004  	95.071546 
2026.038911  	94.918067 
2027.475818  	94.600555 
2028.912725  	94.878440 
2030.349632  	94.671879 
2031.786539  	94.681683 
2033.223446  	95.065038 
2034.660353  	94.574464 
2036.097260  	94.197364 
2037.534167  	94.223250 
2038.971074  	94.237461 
2040.407981  	94.495527 
2041.844888  	94.383685 
2043.281795  	94.236793 
2044.718702  	94.468368 
2046.155609  	94.410390 
2047.592516  	94.402747 
2049.029423  	94.376333 
2050.466330  	94.059295 
2051.903237  	94.112428 
2053.340144  	94.317902 
2054.777051  	94.308360 
2056.213958  	94.244393 
2057.650865  	94.155925 
2059.087772  	94.171548 
2060.524679  	94.129591 
2061.961586  	94.069088 
2063.398493  	94.246196 
2064.835401  	94.152726 
2066.272308  	93.917531 
2067.709215  	94.075022 
2069.146122  	94.157470 
2070.583029  	94.029549 
2072.019936  	93.922906 
2073.456843  	93.852400 
2074.893750  	93.881684 
2076.330657  	93.842102 
2077.767564  	93.816977 
2079.204471  	93.935760 
2080.641378  	93.910704 
2082.078285  	93.909850 
2083.515192  	94.016722 
2084.952099  	93.959101 
2086.389006  	93.886869 
2087.825913  	93.898848 
2089.262820  	94.004506 
2090.699727  	94.146665 
2092.136634  	94.066807 
2093.573541  	93.982262 
2095.010448  	94.039808 
2096.447355  	94.054452 
2097.884262  	94.065029 
2099.321169  	93.989939 
2100.758076  	93.947349 
2102.194983  	94.035096 
2103.631890  	93.933122 
2105.068797  	93.868106 
2106.505704  	93.987413 
2107.942611  	93.940596 
2109.379518  	93.847489 
2110.816425  	93.814219 
2112.253332  	93.857704 
2113.690239  	94.029359 
2115.127147  	94.029144 
2116.564054  	93.957418 
2118.000961  	93.993668 
2119.437868  	93.989607 
2120.874775  	94.079317 
2122.311682  	94.105486 
2123.748589  	93.963255 
2125.185496  	94.024296 
2126.622403  	94.136933 
2128.059310  	94.209864 
2129.496217  	94.322209 
2130.933124  	94.178665 
2132.370031  	94.088554 
2133.806938  	94.243936 
2135.243845  	94.282747 
2136.680752  	94.370358 
2138.117659  	94.414384 
2139.554566  	94.294911 
2140.991473  	94.293132 
2142.428380  	94.286300 
2143.865287  	94.290271 
2145.302194  	94.290335 
2146.739101  	94.170771 
2148.176008  	94.200116 
2149.612915  	94.234925 
2151.049822  	94.316443 
2152.486729  	94.523582 
2153.923636  	94.437749 
2155.360543  	94.538961 
2156.797450  	94.725182 
2158.234357  	94.208476 
2159.671264  	93.640339 
2161.108171  	93.453740 
2162.545078  	93.774934 
2163.981985  	94.374535 
2165.418893  	94.181633 
2166.855800  	93.879624 
2168.292707  	94.001886 
2169.729614  	93.899183 
2171.166521  	93.914863 
2172.603428  	94.062184 
2174.040335  	93.981629 
2175.477242  	93.971471 
2176.914149  	93.985299 
2178.351056  	94.079185 
2179.787963  	94.227705 
2181.224870  	94.182713 
2182.661777  	94.245530 
2184.098684  	94.156696 
2185.535591  	93.925172 
2186.972498  	94.032281 
2188.409405  	94.033866 
2189.846312  	93.981475 
2191.283219  	94.172781 
2192.720126  	94.201777 
2194.157033  	94.233007 
2195.593940  	94.255214 
2197.030847  	94.118723 
2198.467754  	94.181459 
2199.904661  	94.252317 
2201.341568  	94.319495 
2202.778475  	94.553800 
2204.215382  	94.554710 
2205.652289  	94.469107 
2207.089196  	94.479151 
2208.526103  	94.469463 
2209.963010  	94.554298 
2211.399917  	94.574411 
2212.836824  	94.655690 
2214.273732  	94.909477 
2215.710639  	94.890948 
2217.147546  	94.816575 
2218.584453  	94.947888 
2220.021360  	95.093590 
2221.458267  	95.218295 
2222.895174  	95.117458 
2224.332081  	95.000418 
2225.768988  	95.093628 
2227.205895  	95.037695 
2228.642802  	95.022015 
2230.079709  	95.112056 
2231.516616  	94.994158 
2232.953523  	94.988715 
2234.390430  	95.067707 
2235.827337  	94.992735 
2237.264244  	95.006616 
2238.701151  	95.002094 
2240.138058  	94.928697 
2241.574965  	94.957359 
2243.011872  	94.974797 
2244.448779  	95.002182 
2245.885686  	95.037583 
2247.322593  	95.013209 
2248.759500  	94.982661 
2250.196407  	94.888473 
2251.633314  	94.880144 
2253.070221  	95.004472 
2254.507128  	94.956152 
2255.944035  	94.882662 
2257.380942  	94.965204 
2258.817849  	94.953911 
2260.254756  	94.873108 
2261.691663  	94.935802 
2263.128570  	95.073997 
2264.565478  	95.120621 
2266.002385  	95.113460 
2267.439292  	95.130573 
2268.876199  	95.105575 
2270.313106  	95.134960 
2271.750013  	95.217929 
2273.186920  	95.117713 
2274.623827  	94.995792 
2276.060734  	95.082502 
2277.497641  	95.216217 
2278.934548  	95.214634 
2280.371455  	95.085656 
2281.808362  	95.051100 
2283.245269  	95.126762 
2284.682176  	95.079836 
2286.119083  	95.046290 
2287.555990  	95.122453 
2288.992897  	95.130397 
2290.429804  	95.147733 
2291.866711  	95.199949 
2293.303618  	95.201823 
2294.740525  	95.242301 
2296.177432  	95.289814 
2297.614339  	95.312187 
2299.051246  	95.180561 
2300.488153  	95.299799 
2301.925060  	95.298082 
2303.361967  	95.357915 
2304.798874  	95.346947 
2306.235781  	95.353723 
2307.672688  	95.419338 
2309.109595  	95.418192 
2310.546502  	95.379661 
2311.983409  	95.412933 
2313.420317  	95.500478 
2314.857224  	95.531825 
2316.294131  	95.548574 
2317.731038  	95.613296 
2319.167945  	95.597331 
2320.604852  	95.558048 
2322.041759  	95.577964 
2323.478666  	95.515007 
2324.915573  	95.519935 
2326.352480  	95.697342 
2327.789387  	95.829056 
2329.226294  	95.890448 
2330.663201  	95.958285 
2332.100108  	95.979436 
2333.537015  	95.928084 
2334.973922  	95.834892 
2336.410829  	95.761589 
2337.847736  	95.718743 
2339.284643  	95.729039 
2340.721550  	95.800332 
2342.158457  	95.817235 
2343.595364  	95.853382 
2345.032271  	95.941224 
2346.469178  	95.889714 
2347.906085  	95.843068 
2349.342992  	95.896360 
2350.779899  	95.924363 
2352.216806  	95.924059 
2353.653713  	95.920043 
2355.090620  	95.909391 
2356.527527  	95.912949 
2357.964434  	95.859179 
2359.401341  	95.852658 
2360.838248  	95.919402 
2362.275155  	95.887199 
2363.712063  	95.841496 
2365.148970  	95.773176 
2366.585877  	95.668149 
2368.022784  	95.665390 
2369.459691  	95.715195 
2370.896598  	95.778823 
2372.333505  	95.832581 
2373.770412  	95.848834 
2375.207319  	95.894587 
2376.644226  	95.889725 
2378.081133  	95.844786 
2379.518040  	95.882745 
2380.954947  	95.949783 
2382.391854  	96.026821 
2383.828761  	96.091666 
2385.265668  	96.085128 
2386.702575  	96.113117 
2388.139482  	96.173364 
2389.576389  	96.172400 
2391.013296  	96.182074 
2392.450203  	96.213765 
2393.887110  	96.236593 
2395.324017  	96.272387 
2396.760924  	96.302953 
2398.197831  	96.325557 
2399.634738  	96.299784 
2401.071645  	96.259112 
2402.508552  	96.296972 
2403.945459  	96.323934 
2405.382366  	96.314626 
2406.819273  	96.313600 
2408.256180  	96.285339 
2409.693087  	96.299904 
2411.129994  	96.318897 
2412.566901  	96.287370 
2414.003809  	96.317863 
2415.440716  	96.333782 
2416.877623  	96.322172 
2418.314530  	96.378168 
2419.751437  	96.383977 
2421.188344  	96.407622 
2422.625251  	96.505017 
2424.062158  	96.500465 
2425.499065  	96.488375 
2426.935972  	96.517487 
2428.372879  	96.477738 
2429.809786  	96.469693 
2431.246693  	96.499326 
2432.683600  	96.493726 
2434.120507  	96.481507 
2435.557414  	96.461816 
2436.994321  	96.461717 
2438.431228  	96.462853 
2439.868135  	96.451200 
2441.305042  	96.452019 
2442.741949  	96.408341 
2444.178856  	96.404497 
2445.615763  	96.459855 
2447.052670  	96.415806 
2448.489577  	96.377828 
2449.926484  	96.388621 
2451.363391  	96.325311 
2452.800298  	96.308275 
2454.237205  	96.343759 
2455.674112  	96.314029 
2457.111019  	96.312145 
2458.547926  	96.387421 
2459.984833  	96.466841 
2461.421740  	96.477631 
2462.858648  	96.454561 
2464.295555  	96.487668 
2465.732462  	96.479838 
2467.169369  	96.416621 
2468.606276  	96.428308 
2470.043183  	96.463696 
2471.480090  	96.493762 
2472.916997  	96.533268 
2474.353904  	96.539617 
2475.790811  	96.577703 
2477.227718  	96.611022 
2478.664625  	96.563980 
2480.101532  	96.530109 
2481.538439  	96.510428 
2482.975346  	96.487956 
2484.412253  	96.530674 
2485.849160  	96.583682 
2487.286067  	96.578889 
2488.722974  	96.555819 
2490.159881  	96.572045 
2491.596788  	96.610956 
2493.033695  	96.624788 
2494.470602  	96.648860 
2495.907509  	96.673504 
2497.344416  	96.661463 
2498.781323  	96.665326 
2500.218230  	96.663355 
2501.655137  	96.638917 
2503.092044  	96.649425 
2504.528951  	96.668053 
2505.965858  	96.669375 
2507.402765  	96.649978 
2508.839672  	96.632297 
2510.276579  	96.672034 
2511.713486  	96.694857 
2513.150394  	96.662624 
2514.587301  	96.651301 
2516.024208  	96.668568 
2517.461115  	96.726607 
2518.898022  	96.775604 
2520.334929  	96.743484 
2521.771836  	96.715988 
2523.208743  	96.718700 
2524.645650  	96.721877 
2526.082557  	96.733160 
2527.519464  	96.716192 
2528.956371  	96.702801 
2530.393278  	96.695056 
2531.830185  	96.674989 
2533.267092  	96.713400 
2534.703999  	96.735867 
2536.140906  	96.708891 
2537.577813  	96.737318 
2539.014720  	96.763130 
2540.451627  	96.758418 
2541.888534  	96.749538 
2543.325441  	96.717340 
2544.762348  	96.727684 
2546.199255  	96.738164 
2547.636162  	96.719944 
2549.073069  	96.751277 
2550.509976  	96.753665 
2551.946883  	96.758484 
2553.383790  	96.835471 
2554.820697  	96.843479 
2556.257604  	96.793359 
2557.694511  	96.760694 
2559.131418  	96.759080 
2560.568325  	96.810815 
2562.005232  	96.804734 
2563.442140  	96.795737 
2564.879047  	96.884286 
2566.315954  	96.887302 
2567.752861  	96.828872 
2569.189768  	96.832745 
2570.626675  	96.818140 
2572.063582  	96.812507 
2573.500489  	96.827148 
2574.937396  	96.833823 
2576.374303  	96.876580 
2577.811210  	96.897458 
2579.248117  	96.910100 
2580.685024  	96.942078 
2582.121931  	96.914625 
2583.558838  	96.877633 
2584.995745  	96.862767 
2586.432652  	96.861604 
2587.869559  	96.895615 
2589.306466  	96.881506 
2590.743373  	96.856199 
2592.180280  	96.881573 
2593.617187  	96.865832 
2595.054094  	96.846473 
2596.491001  	96.861405 
2597.927908  	96.879019 
2599.364815  	96.921119 
2600.801722  	96.909798 
2602.238629  	96.857309 
2603.675536  	96.863991 
2605.112443  	96.881122 
2606.549350  	96.904768 
2607.986257  	96.911534 
2609.423164  	96.848207 
2610.860071  	96.823200 
2612.296979  	96.838928 
2613.733886  	96.821542 
2615.170793  	96.818468 
2616.607700  	96.819576 
2618.044607  	96.809243 
2619.481514  	96.812751 
2620.918421  	96.809959 
2622.355328  	96.805427 
2623.792235  	96.803505 
2625.229142  	96.801314 
2626.666049  	96.792251 
2628.102956  	96.763392 
2629.539863  	96.758964 
2630.976770  	96.766077 
2632.413677  	96.748839 
2633.850584  	96.746851 
2635.287491  	96.742592 
2636.724398  	96.746721 
2638.161305  	96.780510 
2639.598212  	96.759005 
2641.035119  	96.720935 
2642.472026  	96.732190 
2643.908933  	96.727100 
2645.345840  	96.725794 
2646.782747  	96.747750 
2648.219654  	96.746266 
2649.656561  	96.744950 
2651.093468  	96.746700 
2652.530375  	96.743153 
2653.967282  	96.746009 
2655.404189  	96.743001 
2656.841096  	96.753562 
2658.278003  	96.760846 
2659.714910  	96.745098 
2661.151817  	96.757279 
2662.588725  	96.780100 
2664.025632  	96.793233 
2665.462539  	96.821940 
2666.899446  	96.827256 
2668.336353  	96.809825 
2669.773260  	96.791618 
2671.210167  	96.752200 
2672.647074  	96.739521 
2674.083981  	96.770100 
2675.520888  	96.782444 
2676.957795  	96.771377 
2678.394702  	96.754822 
2679.831609  	96.744868 
2681.268516  	96.748149 
2682.705423  	96.745329 
2684.142330  	96.742612 
2685.579237  	96.743091 
2687.016144  	96.724798 
2688.453051  	96.701636 
2689.889958  	96.698951 
2691.326865  	96.704389 
2692.763772  	96.698780 
2694.200679  	96.702044 
2695.637586  	96.715772 
2697.074493  	96.696619 
2698.511400  	96.661011 
2699.948307  	96.643368 
2701.385214  	96.632684 
2702.822121  	96.639124 
2704.259028  	96.646941 
2705.695935  	96.631970 
2707.132842  	96.622428 
2708.569749  	96.611610 
2710.006656  	96.592356 
2711.443564  	96.575880 
2712.880471  	96.545982 
2714.317378  	96.530193 
2715.754285  	96.532452 
2717.191192  	96.516805 
2718.628099  	96.510166 
2720.065006  	96.510492 
2721.501913  	96.498310 
2722.938820  	96.495032 
2724.375727  	96.481434 
2725.812634  	96.454038 
2727.249541  	96.432217 
2728.686448  	96.416854 
2730.123355  	96.425547 
2731.560262  	96.426920 
2732.997169  	96.402247 
2734.434076  	96.392171 
2735.870983  	96.377690 
2737.307890  	96.364885 
2738.744797  	96.380988 
2740.181704  	96.373667 
2741.618611  	96.340372 
2743.055518  	96.307609 
2744.492425  	96.274577 
2745.929332  	96.276872 
2747.366239  	96.298158 
2748.803146  	96.295111 
2750.240053  	96.281870 
2751.676960  	96.263115 
2753.113867  	96.244784 
2754.550774  	96.234852 
2755.987681  	96.229109 
2757.424588  	96.228765 
2758.861495  	96.212927 
2760.298402  	96.198118 
2761.735310  	96.206812 
2763.172217  	96.190997 
2764.609124  	96.149158 
2766.046031  	96.116165 
2767.482938  	96.098090 
2768.919845  	96.101769 
2770.356752  	96.091508 
2771.793659  	96.061718 
2773.230566  	96.055053 
2774.667473  	96.045522 
2776.104380  	96.024993 
2777.541287  	96.013384 
2778.978194  	95.988765 
2780.415101  	95.964824 
2781.852008  	95.950168 
2783.288915  	95.931929 
2784.725822  	95.926522 
2786.162729  	95.916262 
2787.599636  	95.890848 
2789.036543  	95.877966 
2790.473450  	95.872393 
2791.910357  	95.855236 
2793.347264  	95.825598 
2794.784171  	95.809455 
2796.221078  	95.801632 
2797.657985  	95.762462 
2799.094892  	95.733238 
2800.531799  	95.727870 
2801.968706  	95.695110 
2803.405613  	95.672902 
2804.842520  	95.662767 
2806.279427  	95.619758 
2807.716334  	95.592510 
2809.153241  	95.586539 
2810.590148  	95.569597 
2812.027056  	95.552420 
2813.463963  	95.529454 
2814.900870  	95.522957 
2816.337777  	95.519246 
2817.774684  	95.473604 
2819.211591  	95.444565 
2820.648498  	95.437363 
2822.085405  	95.389988 
2823.522312  	95.338485 
2824.959219  	95.310940 
2826.396126  	95.290615 
2827.833033  	95.268986 
2829.269940  	95.231621 
2830.706847  	95.200963 
2832.143754  	95.181196 
2833.580661  	95.147044 
2835.017568  	95.118143 
2836.454475  	95.093838 
2837.891382  	95.059217 
2839.328289  	95.023257 
2840.765196  	94.976798 
2842.202103  	94.930260 
2843.639010  	94.900748 
2845.075917  	94.874712 
2846.512824  	94.840804 
2847.949731  	94.784844 
2849.386638  	94.720722 
2850.823545  	94.680372 
2852.260452  	94.649535 
2853.697359  	94.611378 
2855.134266  	94.564920 
2856.571173  	94.518245 
2858.008080  	94.494515 
2859.444987  	94.476856 
2860.881895  	94.441545 
2862.318802  	94.405053 
2863.755709  	94.377242 
2865.192616  	94.348104 
2866.629523  	94.297987 
2868.066430  	94.241046 
2869.503337  	94.209759 
2870.940244  	94.174531 
2872.377151  	94.119521 
2873.814058  	94.078245 
2875.250965  	94.048643 
2876.687872  	94.012049 
2878.124779  	93.956166 
2879.561686  	93.902211 
2880.998593  	93.887947 
2882.435500  	93.863655 
2883.872407  	93.791245 
2885.309314  	93.718862 
2886.746221  	93.662163 
2888.183128  	93.618522 
2889.620035  	93.579303 
2891.056942  	93.517815 
2892.493849  	93.451915 
2893.930756  	93.384835 
2895.367663  	93.315693 
2896.804570  	93.275061 
2898.241477  	93.227990 
2899.678384  	93.158587 
2901.115291  	93.106189 
2902.552198  	93.039600 
2903.989105  	92.952928 
2905.426012  	92.895076 
2906.862919  	92.848756 
2908.299826  	92.789207 
2909.736733  	92.731245 
2911.173641  	92.678488 
2912.610548  	92.613688 
2914.047455  	92.527218 
2915.484362  	92.437028 
2916.921269  	92.348054 
2918.358176  	92.263871 
2919.795083  	92.198886 
2921.231990  	92.124971 
2922.668897  	92.039249 
2924.105804  	91.965963 
2925.542711  	91.885931 
2926.979618  	91.816701 
2928.416525  	91.762329 
2929.853432  	91.674743 
2931.290339  	91.582419 
2932.727246  	91.511999 
2934.164153  	91.446205 
2935.601060  	91.397418 
2937.037967  	91.339855 
2938.474874  	91.262149 
2939.911781  	91.194868 
2941.348688  	91.120473 
2942.785595  	91.038341 
2944.222502  	90.946486 
2945.659409  	90.822087 
2947.096316  	90.713436 
2948.533223  	90.636266 
2949.970130  	90.548015 
2951.407037  	90.455750 
2952.843944  	90.360031 
2954.280851  	90.257535 
2955.717758  	90.167895 
2957.154665  	90.082669 
2958.591572  	89.991515 
2960.028479  	89.889091 
2961.465387  	89.780266 
2962.902294  	89.684435 
2964.339201  	89.597239 
2965.776108  	89.511811 
2967.213015  	89.410400 
2968.649922  	89.297472 
2970.086829  	89.218954 
2971.523736  	89.132722 
2972.960643  	88.999839 
2974.397550  	88.883497 
2975.834457  	88.781885 
2977.271364  	88.659889 
2978.708271  	88.525229 
2980.145178  	88.385326 
2981.582085  	88.275503 
2983.018992  	88.174317 
2984.455899  	88.033344 
2985.892806  	87.898891 
2987.329713  	87.795182 
2988.766620  	87.699225 
2990.203527  	87.568711 
2991.640434  	87.384565 
2993.077341  	87.243327 
2994.514248  	87.137542 
2995.951155  	86.974325 
2997.388062  	86.832477 
2998.824969  	86.721856 
3000.261876  	86.562330 
3001.698783  	86.394825 
3003.135690  	86.229074 
3004.572597  	86.066988 
3006.009504  	85.929751 
3007.446411  	85.774072 
3008.883318  	85.614098 
3010.320226  	85.455936 
3011.757133  	85.290528 
3013.194040  	85.142505 
3014.630947  	84.953518 
3016.067854  	84.766816 
3017.504761  	84.648512 
3018.941668  	84.479448 
3020.378575  	84.279935 
3021.815482  	84.120340 
3023.252389  	83.937718 
3024.689296  	83.775578 
3026.126203  	83.630079 
3027.563110  	83.435186 
3029.000017  	83.241816 
3030.436924  	83.049874 
3031.873831  	82.861079 
3033.310738  	82.678055 
3034.747645  	82.455645 
3036.184552  	82.262837 
3037.621459  	82.095836 
3039.058366  	81.895516 
3040.495273  	81.709804 
3041.932180  	81.499305 
3043.369087  	81.264628 
3044.805994  	81.062094 
3046.242901  	80.835787 
3047.679808  	80.615066 
3049.116715  	80.415911 
3050.553622  	80.191047 
3051.990529  	79.981085 
3053.427436  	79.754104 
3054.864343  	79.521740 
3056.301250  	79.332624 
3057.738157  	79.100789 
3059.175064  	78.866038 
3060.611972  	78.659924 
3062.048879  	78.404162 
3063.485786  	78.159448 
3064.922693  	77.925048 
3066.359600  	77.673138 
3067.796507  	77.458685 
3069.233414  	77.229159 
3070.670321  	76.988237 
3072.107228  	76.751902 
3073.544135  	76.477221 
3074.981042  	76.227053 
3076.417949  	75.990294 
3077.854856  	75.735809 
3079.291763  	75.474743 
3080.728670  	75.161411 
3082.165577  	74.883473 
3083.602484  	74.645292 
3085.039391  	74.370268 
3086.476298  	74.149820 
3087.913205  	73.902230 
3089.350112  	73.592988 
3090.787019  	73.352222 
3092.223926  	73.069973 
3093.660833  	72.766009 
3095.097740  	72.509422 
3096.534647  	72.193412 
3097.971554  	71.927774 
3099.408461  	71.678328 
3100.845368  	71.339045 
3102.282275  	71.067153 
3103.719182  	70.790469 
3105.156089  	70.486976 
3106.592996  	70.262391 
3108.029903  	69.961609 
3109.466811  	69.628915 
3110.903718  	69.348615 
3112.340625  	69.031082 
3113.777532  	68.749495 
3115.214439  	68.458530 
3116.651346  	68.124701 
3118.088253  	67.840960 
3119.525160  	67.541876 
3120.962067  	67.263817 
3122.398974  	66.980823 
3123.835881  	66.626262 
3125.272788  	66.350241 
3126.709695  	66.070190 
3128.146602  	65.739670 
3129.583509  	65.459182 
3131.020416  	65.120993 
3132.457323  	64.821404 
3133.894230  	64.567133 
3135.331137  	64.192011 
3136.768044  	63.891919 
3138.204951  	63.645589 
3139.641858  	63.324724 
3141.078765  	63.049022 
3142.515672  	62.743282 
3143.952579  	62.445174 
3145.389486  	62.192656 
3146.826393  	61.851604 
3148.263300  	61.550231 
3149.700207  	61.260803 
3151.137114  	60.942898 
3152.574021  	60.730202 
3154.010928  	60.447549 
3155.447835  	60.136703 
3156.884742  	59.896017 
3158.321649  	59.558923 
3159.758557  	59.278879 
3161.195464  	59.027235 
3162.632371  	58.683853 
3164.069278  	58.451483 
3165.506185  	58.198701 
3166.943092  	57.901458 
3168.379999  	57.689768 
3169.816906  	57.388849 
3171.253813  	57.110319 
3172.690720  	56.878879 
3174.127627  	56.570129 
3175.564534  	56.350756 
3177.001441  	56.098886 
3178.438348  	55.797053 
3179.875255  	55.615408 
3181.312162  	55.385929 
3182.749069  	55.163102 
3184.185976  	54.947565 
3185.622883  	54.656065 
3187.059790  	54.481633 
3188.496697  	54.255244 
3189.933604  	53.960870 
3191.370511  	53.809353 
3192.807418  	53.595830 
3194.244325  	53.387471 
3195.681232  	53.220704 
3197.118139  	52.948811 
3198.555046  	52.790664 
3199.991953  	52.630603 
3201.428860  	52.397833 
3202.865767  	52.279218 
3204.302674  	52.078940 
3205.739581  	51.902828 
3207.176488  	51.804582 
3208.613395  	51.579523 
3210.050303  	51.455469 
3211.487210  	51.308079 
3212.924117  	51.053126 
3214.361024  	50.996473 
3215.797931  	50.880317 
3217.234838  	50.684429 
3218.671745  	50.594481 
3220.108652  	50.425489 
3221.545559  	50.328322 
3222.982466  	50.261251 
3224.419373  	50.110465 
3225.856280  	50.066064 
3227.293187  	49.928556 
3228.730094  	49.782994 
3230.167001  	49.780855 
3231.603908  	49.625862 
3233.040815  	49.511460 
3234.477722  	49.490189 
3235.914629  	49.387280 
3237.351536  	49.386684 
3238.788443  	49.328542 
3240.225350  	49.229418 
3241.662257  	49.224210 
3243.099164  	49.076138 
3244.536071  	49.008115 
3245.972978  	49.036998 
3247.409885  	48.920089 
3248.846792  	48.892914 
3250.283699  	48.835677 
3251.720606  	48.742521 
3253.157513  	48.812267 
3254.594420  	48.765322 
3256.031327  	48.711631 
3257.468234  	48.736286 
3258.905142  	48.654002 
3260.342049  	48.674160 
3261.778956  	48.659127 
3263.215863  	48.554751 
3264.652770  	48.591548 
3266.089677  	48.540505 
3267.526584  	48.484141 
3268.963491  	48.512299 
3270.400398  	48.452255 
3271.837305  	48.497971 
3273.274212  	48.500275 
3274.711119  	48.405295 
3276.148026  	48.485839 
3277.584933  	48.472413 
3279.021840  	48.404626 
3280.458747  	48.438170 
3281.895654  	48.383724 
3283.332561  	48.406977 
3284.769468  	48.422264 
3286.206375  	48.350003 
3287.643282  	48.411331 
3289.080189  	48.368949 
3290.517096  	48.291434 
3291.954003  	48.351841 
3293.390910  	48.320921 
3294.827817  	48.340551 
3296.264724  	48.362653 
3297.701631  	48.301444 
3299.138538  	48.369818 
3300.575445  	48.344666 
3302.012352  	48.285090 
3303.449259  	48.339160 
3304.886166  	48.265973 
3306.323073  	48.258168 
3307.759980  	48.281460 
3309.196888  	48.201422 
3310.633795  	48.277574 
3312.070702  	48.291817 
3313.507609  	48.261566 
3314.944516  	48.346654 
3316.381423  	48.256022 
3317.818330  	48.230982 
3319.255237  	48.307047 
3320.692144  	48.208434 
3322.129051  	48.222157 
3323.565958  	48.257871 
3325.002865  	48.218095 
3326.439772  	48.271549 
3327.876679  	48.203887 
3329.313586  	48.195070 
3330.750493  	48.308609 
3332.187400  	48.242715 
3333.624307  	48.230735 
3335.061214  	48.283600 
3336.498121  	48.268698 
3337.935028  	48.301725 
3339.371935  	48.286173 
3340.808842  	48.322705 
3342.245749  	48.364383 
3343.682656  	48.299492 
3345.119563  	48.391096 
3346.556470  	48.424054 
3347.993377  	48.344288 
3349.430284  	48.438287 
3350.867191  	48.456413 
3352.304098  	48.455819 
3353.741005  	48.523664 
3355.177912  	48.485739 
3356.614819  	48.602196 
3358.051726  	48.717825 
3359.488634  	48.669850 
3360.925541  	48.766051 
3362.362448  	48.842438 
3363.799355  	48.880713 
3365.236262  	48.958341 
3366.673169  	48.921187 
3368.110076  	49.001010 
3369.546983  	49.113977 
3370.983890  	49.150227 
3372.420797  	49.321268 
3373.857704  	49.389907 
3375.294611  	49.413464 
3376.731518  	49.543163 
3378.168425  	49.554083 
3379.605332  	49.646715 
3381.042239  	49.802847 
3382.479146  	49.873589 
3383.916053  	50.036089 
3385.352960  	50.115540 
3386.789867  	50.185440 
3388.226774  	50.358820 
3389.663681  	50.393916 
3391.100588  	50.504301 
3392.537495  	50.672656 
3393.974402  	50.750472 
3395.411309  	50.952569 
3396.848216  	51.102030 
3398.285123  	51.235110 
3399.722030  	51.426728 
3401.158937  	51.448090 
3402.595844  	51.591198 
3404.032751  	51.794412 
3405.469658  	51.859677 
3406.906565  	52.114910 
3408.343473  	52.318063 
3409.780380  	52.402325 
3411.217287  	52.614419 
3412.654194  	52.735101 
3414.091101  	52.946575 
3415.528008  	53.230882 
3416.964915  	53.309499 
3418.401822  	53.479020 
3419.838729  	53.650194 
3421.275636  	53.776197 
3422.712543  	54.066255 
3424.149450  	54.222919 
3425.586357  	54.399363 
3427.023264  	54.689857 
3428.460171  	54.821021 
3429.897078  	55.031915 
3431.333985  	55.253253 
3432.770892  	55.372858 
3434.207799  	55.605846 
3435.644706  	55.760991 
3437.081613  	55.952655 
3438.518520  	56.278132 
3439.955427  	56.459261 
3441.392334  	56.669624 
3442.829241  	56.899178 
3444.266148  	57.060852 
3445.703055  	57.316000 
3447.139962  	57.505558 
3448.576869  	57.730395 
3450.013776  	57.996487 
3451.450683  	58.109657 
3452.887590  	58.373553 
3454.324497  	58.668001 
3455.761404  	58.800697 
3457.198311  	59.040902 
3458.635219  	59.222765 
3460.072126  	59.367768 
3461.509033  	59.650945 
3462.945940  	59.870651 
3464.382847  	60.106336 
3465.819754  	60.311398 
3467.256661  	60.445225 
3468.693568  	60.709109 
3470.130475  	60.915700 
3471.567382  	61.139610 
3473.004289  	61.464390 
3474.441196  	61.637303 
3475.878103  	61.868836 
3477.315010  	62.117986 
3478.751917  	62.221294 
3480.188824  	62.455770 
3481.625731  	62.695395 
3483.062638  	62.910709 
3484.499545  	63.230801 
3485.936452  	63.419032 
3487.373359  	63.621663 
3488.810266  	63.899764 
3490.247173  	64.088569 
3491.684080  	64.302210 
3493.120987  	64.470723 
3494.557894  	64.687591 
3495.994801  	65.007816 
3497.431708  	65.175089 
3498.868615  	65.387597 
3500.305522  	65.619233 
3501.742429  	65.694546 
3503.179336  	65.913000 
3504.616243  	66.187018 
3506.053150  	66.429967 
3507.490058  	66.734946 
3508.926965  	66.891300 
3510.363872  	67.088260 
3511.800779  	67.395037 
3513.237686  	67.591910 
3514.674593  	67.849472 
3516.111500  	68.055031 
3517.548407  	68.210997 
3518.985314  	68.535220 
3520.422221  	68.786532 
3521.859128  	68.972133 
3523.296035  	69.169415 
3524.732942  	69.305020 
3526.169849  	69.563371 
3527.606756  	69.786870 
3529.043663  	70.019939 
3530.480570  	70.421911 
3531.917477  	70.604866 
3533.354384  	70.721159 
3534.791291  	70.978040 
3536.228198  	71.153768 
3537.665105  	71.407168 
3539.102012  	71.692702 
3540.538919  	71.886101 
3541.975826  	72.152676 
3543.412733  	72.348246 
3544.849640  	72.510777 
3546.286547  	72.757278 
3547.723454  	72.962815 
3549.160361  	73.268611 
3550.597268  	73.535382 
3552.034175  	73.714781 
3553.471082  	74.002369 
3554.907989  	74.154393 
3556.344896  	74.261326 
3557.781804  	74.549916 
3559.218711  	74.787095 
3560.655618  	74.989203 
3562.092525  	75.221876 
3563.529432  	75.419515 
3564.966339  	75.657073 
3566.403246  	75.864303 
3567.840153  	76.134316 
3569.277060  	76.411087 
3570.713967  	76.509642 
3572.150874  	76.769984 
3573.587781  	77.053265 
3575.024688  	77.202817 
3576.461595  	77.457643 
3577.898502  	77.639569 
3579.335409  	77.749835 
3580.772316  	78.013008 
3582.209223  	78.236555 
3583.646130  	78.431810 
3585.083037  	78.629493 
3586.519944  	78.786569 
3587.956851  	79.021611 
3589.393758  	79.176963 
3590.830665  	79.385475 
3592.267572  	79.717340 
3593.704479  	79.873183 
3595.141386  	80.010784 
3596.578293  	80.221016 
3598.015200  	80.322654 
3599.452107  	80.607071 
3600.889014  	80.918101 
3602.325921  	81.043738 
3603.762828  	81.226548 
3605.199735  	81.385099 
3606.636642  	81.584159 
3608.073550  	81.891124 
3609.510457  	82.020816 
3610.947364  	82.167189 
3612.384271  	82.449116 
3613.821178  	82.721054 
3615.258085  	82.902008 
3616.694992  	82.999190 
3618.131899  	83.285348 
3619.568806  	83.648865 
3621.005713  	83.651907 
3622.442620  	83.734291 
3623.879527  	83.933699 
3625.316434  	84.057255 
3626.753341  	84.324127 
3628.190248  	84.751239 
3629.627155  	85.020376 
3631.064062  	85.169884 
3632.500969  	85.406618 
3633.937876  	85.709858 
3635.374783  	85.817378 
3636.811690  	85.972600 
3638.248597  	86.270701 
3639.685504  	86.402812 
3641.122411  	86.626436 
3642.559318  	86.944988 
3643.996225  	87.046054 
3645.433132  	87.302127 
3646.870039  	87.674298 
3648.306946  	87.747264 
3649.743853  	87.973105 
3651.180760  	88.243429 
3652.617667  	88.496959 
3654.054574  	88.900758 
3655.491481  	89.282065 
3656.928389  	89.421347 
3658.365296  	89.482060 
3659.802203  	89.758529 
3661.239110  	90.104435 
3662.676017  	90.297597 
3664.112924  	90.588395 
3665.549831  	90.807165 
3666.986738  	90.902349 
3668.423645  	91.073957 
3669.860552  	91.321539 
3671.297459  	91.345374 
3672.734366  	91.532666 
3674.171273  	92.018061 
3675.608180  	92.216186 
3677.045087  	92.102341 
3678.481994  	92.417058 
3679.918901  	92.663864 
3681.355808  	92.735940 
3682.792715  	92.878575 
3684.229622  	93.050179 
3685.666529  	93.092897 
3687.103436  	93.376587 
3688.540343  	93.774466 
3689.977250  	93.759532 
3691.414157  	93.829847 
3692.851064  	93.891869 
3694.287971  	93.915695 
3695.724878  	94.199123 
3697.161785  	94.406935 
3698.598692  	94.515842 
3700.035599  	94.787702 
3701.472506  	94.952169 
3702.909413  	94.818748 
3704.346320  	94.759832 
3705.783227  	94.875534 
3707.220135  	95.094300 
3708.657042  	95.312443 
3710.093949  	95.481275 
3711.530856  	95.561931 
3712.967763  	95.351377 
3714.404670  	95.212971 
3715.841577  	95.317639 
3717.278484  	95.458500 
3718.715391  	95.499991 
3720.152298  	95.500408 
3721.589205  	95.654484 
3723.026112  	95.785955 
3724.463019  	95.759887 
3725.899926  	95.747005 
3727.336833  	95.589491 
3728.773740  	95.525226 
3730.210647  	95.832390 
3731.647554  	96.132918 
3733.084461  	96.103861 
3734.521368  	96.173431 
3735.958275  	95.994198 
3737.395182  	95.672255 
3738.832089  	95.874215 
3740.268996  	95.985953 
3741.705903  	96.023517 
3743.142810  	96.345476 
3744.579717  	96.297125 
3746.016624  	95.639094 
3747.453531  	95.763208 
3748.890438  	95.959053 
3750.327345  	95.985546 
3751.764252  	95.991675 
3753.201159  	95.999844 
3754.638066  	96.061231 
3756.074973  	96.211820 
3757.511881  	96.315827 
3758.948788  	96.311444 
3760.385695  	96.315201 
3761.822602  	96.273295 
3763.259509  	96.331242 
3764.696416  	96.519600 
3766.133323  	96.421113 
3767.570230  	96.307983 
3769.007137  	96.503972 
3770.444044  	96.466998 
3771.880951  	96.280457 
3773.317858  	96.445818 
3774.754765  	96.594960 
3776.191672  	96.579871 
3777.628579  	96.621485 
3779.065486  	96.652947 
3780.502393  	96.506933 
3781.939300  	96.443390 
3783.376207  	96.528918 
3784.813114  	96.593447 
3786.250021  	96.598136 
3787.686928  	96.596340 
3789.123835  	96.536604 
3790.560742  	96.527665 
3791.997649  	96.624226 
3793.434556  	96.671199 
3794.871463  	96.717074 
3796.308370  	96.761005 
3797.745277  	96.637194 
3799.182184  	96.631185 
3800.619091  	96.811844 
3802.055998  	96.743545 
3803.492905  	96.533370 
3804.929812  	96.714348 
3806.366720  	96.943725 
3807.803627  	96.835077 
3809.240534  	96.726888 
3810.677441  	96.830526 
3812.114348  	96.800196 
3813.551255  	96.729262 
3814.988162  	96.884198 
3816.425069  	96.886389 
3817.861976  	96.700201 
3819.298883  	96.899616 
3820.735790  	97.090055 
3822.172697  	96.743989 
3823.609604  	96.662611 
3825.046511  	96.870218 
3826.483418  	96.941758 
3827.920325  	96.807680 
3829.357232  	96.803066 
3830.794139  	96.843242 
3832.231046  	96.751867 
3833.667953  	96.741557 
3835.104860  	96.822771 
3836.541767  	96.807508 
3837.978674  	96.782502 
3839.415581  	96.727446 
3840.852488  	96.673048 
3842.289395  	96.786569 
3843.726302  	96.838994 
3845.163209  	96.718660 
3846.600116  	96.693852 
3848.037023  	96.787313 
3849.473930  	96.803812 
3850.910837  	96.821890 
3852.347744  	96.939822 
3853.784651  	96.701410 
3855.221558  	96.555367 
3856.658466  	96.773990 
3858.095373  	96.815813 
3859.532280  	96.846259 
3860.969187  	96.920476 
3862.406094  	96.862240 
3863.843001  	96.817548 
3865.279908  	96.789315 
3866.716815  	96.649564 
3868.153722  	96.810873 
3869.590629  	97.024298 
3871.027536  	96.774849 
3872.464443  	96.778881 
3873.901350  	96.917965 
3875.338257  	96.759815 
3876.775164  	96.703865 
3878.212071  	96.863101 
3879.648978  	96.931182 
3881.085885  	96.802669 
3882.522792  	96.712157 
3883.959699  	96.851111 
3885.396606  	96.951370 
3886.833513  	96.793923 
3888.270420  	96.813385 
3889.707327  	96.938387 
3891.144234  	96.895237 
3892.581141  	96.767420 
3894.018048  	96.757326 
3895.454955  	96.753411 
3896.891862  	96.772625 
3898.328769  	96.822008 
3899.765676  	96.786801 
3901.202583  	96.688684 
3902.639490  	96.760507 
3904.076397  	96.881163 
3905.513305  	96.854347 
3906.950212  	96.824547 
3908.387119  	96.788100 
3909.824026  	96.720458 
3911.260933  	96.763352 
3912.697840  	96.788087 
3914.134747  	96.753825 
3915.571654  	96.816229 
3917.008561  	96.833040 
3918.445468  	96.782271 
3919.882375  	96.815143 
3921.319282  	96.823148 
3922.756189  	96.852488 
3924.193096  	96.919452 
3925.630003  	96.830731 
3927.066910  	96.733796 
3928.503817  	96.789411 
3929.940724  	96.836580 
3931.377631  	96.824570 
3932.814538  	96.783786 
3934.251445  	96.741566 
3935.688352  	96.785462 
3937.125259  	96.854584 
3938.562166  	96.830965 
3939.999073  	96.784098 
3941.435980  	96.830836 
3942.872887  	96.765576 
3944.309794  	96.609893 
3945.746701  	96.659914 
3947.183608  	96.753312 
3948.620515  	96.725444 
3950.057422  	96.704936 
3951.494329  	96.736729 
3952.931236  	96.748198 
3954.368143  	96.749183 
3955.805051  	96.783663 
3957.241958  	96.786678 
3958.678865  	96.754329 
3960.115772  	96.712328 
3961.552679  	96.731431 
3962.989586  	96.660143 
3964.426493  	96.628701 
3965.863400  	96.759495 
3967.300307  	96.841323 
3968.737214  	96.804405 
3970.174121  	96.741720 
3971.611028  	96.721489 
3973.047935  	96.758626 
3974.484842  	96.768243 
3975.921749  	96.747905 
3977.358656  	96.709974 
3978.795563  	96.671185 
3980.232470  	96.734578 
3981.669377  	96.775248 
3983.106284  	96.720000 
3984.543191  	96.729581 
3985.980098  	96.713302 
3987.417005  	96.664665 
3988.853912  	96.723701 
3990.290819  	96.731517 
3991.727726  	96.668662 
3993.164633  	96.672262 
3994.601540  	96.689924 
3996.038447  	96.734776 
3997.475354  	96.772656 
3998.912261  	96.738128 
4000.349168  	96.722813 