##TITLE=No Description
##DATA TYPE=INFRARED SPECTRUM
##XUNITS=1/CM
##YUNITS=%T
399.460154  	32.460978 
400.897061  	31.419498 
402.333968  	31.362012 
403.770875  	30.817565 
405.207782  	30.312102 
406.644689  	30.111790 
408.081596  	30.481034 
409.518503  	31.124870 
410.955410  	31.028255 
412.392317  	31.091264 
413.829224  	30.941710 
415.266131  	30.181486 
416.703038  	30.046508 
418.139945  	30.201745 
419.576852  	30.808458 
421.013759  	30.548324 
422.450666  	30.187713 
423.887574  	31.300463 
425.324481  	31.525472 
426.761388  	30.472259 
428.198295  	30.400818 
429.635202  	30.470283 
431.072109  	30.882333 
432.509016  	31.433587 
433.945923  	31.059816 
435.382830  	31.219344 
436.819737  	31.530830 
438.256644  	31.000729 
439.693551  	31.072819 
441.130458  	31.005559 
442.567365  	30.748529 
444.004272  	31.304977 
445.441179  	31.298171 
446.878086  	30.807155 
448.314993  	30.200945 
449.751900  	29.905700 
451.188807  	30.769609 
452.625714  	31.487829 
454.062621  	31.189011 
455.499528  	31.049856 
456.936435  	31.172923 
458.373342  	31.864338 
459.810249  	31.762485 
461.247156  	31.040188 
462.684063  	31.383372 
464.120970  	31.427676 
465.557877  	30.689340 
466.994784  	30.640437 
468.431691  	30.765375 
469.868598  	30.957998 
471.305505  	31.339994 
472.742413  	31.180632 
474.179320  	31.108270 
475.616227  	31.093620 
477.053134  	31.085607 
478.490041  	31.381488 
479.926948  	31.216450 
481.363855  	31.176263 
482.800762  	31.603214 
484.237669  	31.734120 
485.674576  	31.983621 
487.111483  	31.846271 
488.548390  	31.312422 
489.985297  	31.403566 
491.422204  	31.555336 
492.859111  	31.611071 
494.296018  	31.834157 
495.732925  	31.716588 
497.169832  	31.810856 
498.606739  	32.007542 
500.043646  	31.867964 
501.480553  	32.067620 
502.917460  	32.317279 
504.354367  	32.296692 
505.791274  	32.292178 
507.228181  	32.037936 
508.665088  	31.896862 
510.101995  	31.991039 
511.538902  	32.049456 
512.975809  	32.184151 
514.412716  	32.146953 
515.849623  	32.153342 
517.286530  	32.416701 
518.723437  	32.365990 
520.160344  	32.392996 
521.597251  	32.611638 
523.034159  	32.595168 
524.471066  	32.526374 
525.907973  	32.468116 
527.344880  	32.547976 
528.781787  	32.667677 
530.218694  	32.616982 
531.655601  	32.823272 
533.092508  	33.022466 
534.529415  	32.899924 
535.966322  	33.015363 
537.403229  	33.221696 
538.840136  	33.292410 
540.277043  	33.327066 
541.713950  	33.210344 
543.150857  	33.338958 
544.587764  	33.545519 
546.024671  	33.419334 
547.461578  	33.484598 
548.898485  	33.666079 
550.335392  	33.785300 
551.772299  	34.025898 
553.209206  	34.001959 
554.646113  	33.908692 
556.083020  	34.093093 
557.519927  	34.221639 
558.956834  	34.313838 
560.393741  	34.421704 
561.830648  	34.542245 
563.267555  	34.709414 
564.704462  	34.665333 
566.141369  	34.624907 
567.578276  	34.785054 
569.015183  	34.878698 
570.452090  	34.994118 
571.888997  	35.066697 
573.325905  	35.056655 
574.762812  	35.235780 
576.199719  	35.427267 
577.636626  	35.510261 
579.073533  	35.652390 
580.510440  	35.746071 
581.947347  	35.779926 
583.384254  	35.834468 
584.821161  	35.963110 
586.258068  	36.147818 
587.694975  	36.212010 
589.131882  	36.286836 
590.568789  	36.461650 
592.005696  	36.529842 
593.442603  	36.568324 
594.879510  	36.696625 
596.316417  	36.892060 
597.753324  	37.083697 
599.190231  	37.124256 
600.627138  	37.156434 
602.064045  	37.295410 
603.500952  	37.449312 
604.937859  	37.630820 
606.374766  	37.787995 
607.811673  	37.857074 
609.248580  	38.033519 
610.685487  	38.147119 
612.122394  	38.202065 
613.559301  	38.360925 
614.996208  	38.512295 
616.433115  	38.644840 
617.870022  	38.780828 
619.306929  	38.921552 
620.743836  	39.092692 
622.180744  	39.184608 
623.617651  	39.282258 
625.054558  	39.498211 
626.491465  	39.706710 
627.928372  	39.867301 
629.365279  	39.963773 
630.802186  	40.044345 
632.239093  	40.192454 
633.676000  	40.319641 
635.112907  	40.468389 
636.549814  	40.642118 
637.986721  	40.773452 
639.423628  	40.892938 
640.860535  	41.019953 
642.297442  	41.155457 
643.734349  	41.339395 
645.171256  	41.499884 
646.608163  	41.548201 
648.045070  	41.697868 
649.481977  	41.875884 
650.918884  	42.067630 
652.355791  	42.234861 
653.792698  	42.386200 
655.229605  	42.605951 
656.666512  	42.784431 
658.103419  	42.935081 
659.540326  	43.121059 
660.977233  	43.270024 
662.414140  	43.421813 
663.851047  	43.610855 
665.287954  	43.705128 
666.724861  	43.832343 
668.161768  	44.070543 
669.598675  	44.332176 
671.035582  	44.464881 
672.472490  	44.619732 
673.909397  	44.836513 
675.346304  	45.021514 
676.783211  	45.152203 
678.220118  	45.339035 
679.657025  	45.514798 
681.093932  	45.679231 
682.530839  	45.884813 
683.967746  	46.081654 
685.404653  	46.289307 
686.841560  	46.471492 
688.278467  	46.641199 
689.715374  	46.876067 
691.152281  	47.095526 
692.589188  	47.282022 
694.026095  	47.483044 
695.463002  	47.656301 
696.899909  	47.860406 
698.336816  	48.091673 
699.773723  	48.273395 
701.210630  	48.487201 
702.647537  	48.695720 
704.084444  	48.894486 
705.521351  	49.113341 
706.958258  	49.307032 
708.395165  	49.495701 
709.832072  	49.683988 
711.268979  	49.846883 
712.705886  	50.065902 
714.142793  	50.295277 
715.579700  	50.535698 
717.016607  	50.781090 
718.453514  	50.917516 
719.890421  	51.106299 
721.327328  	51.376313 
722.764236  	51.574563 
724.201143  	51.824158 
725.638050  	52.063877 
727.074957  	52.231291 
728.511864  	52.464192 
729.948771  	52.640576 
731.385678  	52.797329 
732.822585  	53.079652 
734.259492  	53.329481 
735.696399  	53.562587 
737.133306  	53.805446 
738.570213  	54.017739 
740.007120  	54.281508 
741.444027  	54.541587 
742.880934  	54.715774 
744.317841  	54.825300 
745.754748  	54.939173 
747.191655  	55.219348 
748.628562  	55.563535 
750.065469  	55.806261 
751.502376  	56.036028 
752.939283  	56.235611 
754.376190  	56.436566 
755.813097  	56.709840 
757.250004  	56.936004 
758.686911  	57.178263 
760.123818  	57.474691 
761.560725  	57.696884 
762.997632  	57.913917 
764.434539  	58.156211 
765.871446  	58.392579 
767.308353  	58.676336 
768.745260  	58.955043 
770.182167  	59.190450 
771.619075  	59.372071 
773.055982  	59.528356 
774.492889  	59.790275 
775.929796  	60.097165 
777.366703  	60.338184 
778.803610  	60.557751 
780.240517  	60.762703 
781.677424  	60.976747 
783.114331  	61.225166 
784.551238  	61.495459 
785.988145  	61.778339 
787.425052  	61.983342 
788.861959  	62.160651 
790.298866  	62.436337 
791.735773  	62.727438 
793.172680  	63.004996 
794.609587  	63.298794 
796.046494  	63.551538 
797.483401  	63.768075 
798.920308  	63.968923 
800.357215  	64.202139 
801.794122  	64.489331 
803.231029  	64.747183 
804.667936  	64.991902 
806.104843  	65.248696 
807.541750  	65.493760 
808.978657  	65.771182 
810.415564  	66.035530 
811.852471  	66.244152 
813.289378  	66.466157 
814.726285  	66.726678 
816.163192  	67.005977 
817.600099  	67.255536 
819.037006  	67.490580 
820.473913  	67.749119 
821.910821  	67.974625 
823.347728  	68.219867 
824.784635  	68.510665 
826.221542  	68.747917 
827.658449  	68.995112 
829.095356  	69.260579 
830.532263  	69.484290 
831.969170  	69.751820 
833.406077  	70.018997 
834.842984  	70.255204 
836.279891  	70.533121 
837.716798  	70.760758 
839.153705  	70.955053 
840.590612  	71.222753 
842.027519  	71.483672 
843.464426  	71.710086 
844.901333  	71.960169 
846.338240  	72.245038 
847.775147  	72.530375 
849.212054  	72.768673 
850.648961  	73.014042 
852.085868  	73.282391 
853.522775  	73.511637 
854.959682  	73.761609 
856.396589  	74.049640 
857.833496  	74.295891 
859.270403  	74.506668 
860.707310  	74.720602 
862.144217  	74.958401 
863.581124  	75.207561 
865.018031  	75.444574 
866.454938  	75.699531 
867.891845  	75.955407 
869.328752  	76.176629 
870.765660  	76.401188 
872.202567  	76.626674 
873.639474  	76.829763 
875.076381  	77.057333 
876.513288  	77.311538 
877.950195  	77.530253 
879.387102  	77.744739 
880.824009  	77.996469 
882.260916  	78.201847 
883.697823  	78.363732 
885.134730  	78.584251 
886.571637  	78.836644 
888.008544  	79.060635 
889.445451  	79.245214 
890.882358  	79.408275 
892.319265  	79.601465 
893.756172  	79.807404 
895.193079  	80.021823 
896.629986  	80.244203 
898.066893  	80.388306 
899.503800  	80.520540 
900.940707  	80.725589 
902.377614  	80.917705 
903.814521  	81.094067 
905.251428  	81.262238 
906.688335  	81.413770 
908.125242  	81.607550 
909.562149  	81.780463 
910.999056  	81.929643 
912.435963  	82.130793 
913.872870  	82.310159 
915.309777  	82.477907 
916.746684  	82.669213 
918.183591  	82.823898 
919.620498  	82.967981 
921.057406  	83.094914 
922.494313  	83.224477 
923.931220  	83.410128 
925.368127  	83.556617 
926.805034  	83.679366 
928.241941  	83.843363 
929.678848  	83.982561 
931.115755  	84.117436 
932.552662  	84.243612 
933.989569  	84.335738 
935.426476  	84.459400 
936.863383  	84.590828 
938.300290  	84.729980 
939.737197  	84.878701 
941.174104  	84.968054 
942.611011  	85.070811 
944.047918  	85.200325 
945.484825  	85.290074 
946.921732  	85.402214 
948.358639  	85.524896 
949.795546  	85.631925 
951.232453  	85.748903 
952.669360  	85.831895 
954.106267  	85.910534 
955.543174  	86.003765 
956.980081  	86.090345 
958.416988  	86.217269 
959.853895  	86.325031 
961.290802  	86.374208 
962.727709  	86.438623 
964.164616  	86.517025 
965.601523  	86.609729 
967.038430  	86.705951 
968.475337  	86.780964 
969.912244  	86.872182 
971.349152  	86.951164 
972.786059  	87.019688 
974.222966  	87.115484 
975.659873  	87.196050 
977.096780  	87.277668 
978.533687  	87.350599 
979.970594  	87.388925 
981.407501  	87.457848 
982.844408  	87.530095 
984.281315  	87.592587 
985.718222  	87.662627 
987.155129  	87.677906 
988.592036  	87.714069 
990.028943  	87.812212 
991.465850  	87.883313 
992.902757  	87.952137 
994.339664  	88.000501 
995.776571  	88.015112 
997.213478  	88.060439 
998.650385  	88.092082 
1000.087292  	88.124053 
1001.524199  	88.175390 
1002.961106  	88.185692 
1004.398013  	88.210522 
1005.834920  	88.239132 
1007.271827  	88.242271 
1008.708734  	88.295023 
1010.145641  	88.341883 
1011.582548  	88.367177 
1013.019455  	88.417373 
1014.456362  	88.446493 
1015.893269  	88.501152 
1017.330176  	88.573211 
1018.767083  	88.611523 
1020.203991  	88.682817 
1021.640898  	88.714671 
1023.077805  	88.683156 
1024.514712  	88.710472 
1025.951619  	88.738882 
1027.388526  	88.732771 
1028.825433  	88.746412 
1030.262340  	88.750347 
1031.699247  	88.750325 
1033.136154  	88.750857 
1034.573061  	88.751885 
1036.009968  	88.769305 
1037.446875  	88.765351 
1038.883782  	88.766246 
1040.320689  	88.788313 
1041.757596  	88.810331 
1043.194503  	88.878071 
1044.631410  	88.941345 
1046.068317  	88.969479 
1047.505224  	89.027751 
1048.942131  	89.064978 
1050.379038  	89.084752 
1051.815945  	89.148078 
1053.252852  	89.206970 
1054.689759  	89.246965 
1056.126666  	89.267724 
1057.563573  	89.281555 
1059.000480  	89.329796 
1060.437387  	89.374422 
1061.874294  	89.398657 
1063.311201  	89.406865 
1064.748108  	89.410212 
1066.185015  	89.444343 
1067.621922  	89.435335 
1069.058829  	89.396915 
1070.495737  	89.435469 
1071.932644  	89.480384 
1073.369551  	89.497638 
1074.806458  	89.517666 
1076.243365  	89.513710 
1077.680272  	89.521324 
1079.117179  	89.522299 
1080.554086  	89.509035 
1081.990993  	89.534117 
1083.427900  	89.539993 
1084.864807  	89.541703 
1086.301714  	89.567533 
1087.738621  	89.557166 
1089.175528  	89.568275 
1090.612435  	89.587046 
1092.049342  	89.554677 
1093.486249  	89.545985 
1094.923156  	89.547181 
1096.360063  	89.558056 
1097.796970  	89.605836 
1099.233877  	89.604246 
1100.670784  	89.592574 
1102.107691  	89.628585 
1103.544598  	89.658728 
1104.981505  	89.681019 
1106.418412  	89.677425 
1107.855319  	89.670894 
1109.292226  	89.701087 
1110.729133  	89.713020 
1112.166040  	89.724678 
1113.602947  	89.741309 
1115.039854  	89.732761 
1116.476761  	89.754211 
1117.913668  	89.774403 
1119.350575  	89.767478 
1120.787483  	89.777915 
1122.224390  	89.778075 
1123.661297  	89.794301 
1125.098204  	89.831757 
1126.535111  	89.826956 
1127.972018  	89.819568 
1129.408925  	89.834744 
1130.845832  	89.860256 
1132.282739  	89.871164 
1133.719646  	89.825597 
1135.156553  	89.805245 
1136.593460  	89.831553 
1138.030367  	89.833749 
1139.467274  	89.850420 
1140.904181  	89.857727 
1142.341088  	89.828603 
1143.777995  	89.826519 
1145.214902  	89.820711 
1146.651809  	89.796770 
1148.088716  	89.775496 
1149.525623  	89.758785 
1150.962530  	89.784539 
1152.399437  	89.793686 
1153.836344  	89.767218 
1155.273251  	89.781314 
1156.710158  	89.789207 
1158.147065  	89.788580 
1159.583972  	89.807275 
1161.020879  	89.793466 
1162.457786  	89.783962 
1163.894693  	89.781978 
1165.331600  	89.772373 
1166.768507  	89.792183 
1168.205414  	89.775842 
1169.642322  	89.754815 
1171.079229  	89.788327 
1172.516136  	89.776473 
1173.953043  	89.757498 
1175.389950  	89.778202 
1176.826857  	89.766473 
1178.263764  	89.770034 
1179.700671  	89.790664 
1181.137578  	89.782159 
1182.574485  	89.777328 
1184.011392  	89.766774 
1185.448299  	89.777055 
1186.885206  	89.803609 
1188.322113  	89.781251 
1189.759020  	89.767851 
1191.195927  	89.773465 
1192.632834  	89.755314 
1194.069741  	89.752336 
1195.506648  	89.750056 
1196.943555  	89.746765 
1198.380462  	89.758570 
1199.817369  	89.750279 
1201.254276  	89.752380 
1202.691183  	89.763225 
1204.128090  	89.749815 
1205.564997  	89.747469 
1207.001904  	89.744425 
1208.438811  	89.735738 
1209.875718  	89.729357 
1211.312625  	89.698508 
1212.749532  	89.695488 
1214.186439  	89.727144 
1215.623346  	89.730986 
1217.060253  	89.731482 
1218.497160  	89.737818 
1219.934068  	89.738656 
1221.370975  	89.742810 
1222.807882  	89.728068 
1224.244789  	89.706534 
1225.681696  	89.690945 
1227.118603  	89.673916 
1228.555510  	89.675459 
1229.992417  	89.685181 
1231.429324  	89.693405 
1232.866231  	89.697402 
1234.303138  	89.680010 
1235.740045  	89.665327 
1237.176952  	89.655415 
1238.613859  	89.643537 
1240.050766  	89.648634 
1241.487673  	89.646660 
1242.924580  	89.641437 
1244.361487  	89.645647 
1245.798394  	89.633095 
1247.235301  	89.623195 
1248.672208  	89.616924 
1250.109115  	89.602251 
1251.546022  	89.594304 
1252.982929  	89.575311 
1254.419836  	89.571988 
1255.856743  	89.596191 
1257.293650  	89.591221 
1258.730557  	89.576355 
1260.167464  	89.569799 
1261.604371  	89.560939 
1263.041278  	89.567538 
1264.478185  	89.565903 
1265.915092  	89.567738 
1267.351999  	89.581620 
1268.788907  	89.568288 
1270.225814  	89.563104 
1271.662721  	89.561538 
1273.099628  	89.545701 
1274.536535  	89.561369 
1275.973442  	89.561789 
1277.410349  	89.540534 
1278.847256  	89.539352 
1280.284163  	89.515113 
1281.721070  	89.504179 
1283.157977  	89.528440 
1284.594884  	89.539124 
1286.031791  	89.561303 
1287.468698  	89.569177 
1288.905605  	89.558865 
1290.342512  	89.582361 
1291.779419  	89.592247 
1293.216326  	89.596042 
1294.653233  	89.605758 
1296.090140  	89.585074 
1297.527047  	89.594635 
1298.963954  	89.618893 
1300.400861  	89.612483 
1301.837768  	89.619750 
1303.274675  	89.623399 
1304.711582  	89.629962 
1306.148489  	89.653852 
1307.585396  	89.646569 
1309.022303  	89.660574 
1310.459210  	89.668377 
1311.896117  	89.657497 
1313.333024  	89.655748 
1314.769931  	89.662890 
1316.206838  	89.664908 
1317.643745  	89.672527 
1319.080653  	89.658396 
1320.517560  	89.659359 
1321.954467  	89.669356 
1323.391374  	89.662152 
1324.828281  	89.670386 
1326.265188  	89.672131 
1327.702095  	89.657270 
1329.139002  	89.659188 
1330.575909  	89.641786 
1332.012816  	89.624554 
1333.449723  	89.635235 
1334.886630  	89.631483 
1336.323537  	89.622018 
1337.760444  	89.605732 
1339.197351  	89.584923 
1340.634258  	89.586387 
1342.071165  	89.590074 
1343.508072  	89.595210 
1344.944979  	89.594338 
1346.381886  	89.573842 
1347.818793  	89.568841 
1349.255700  	89.556744 
1350.692607  	89.522916 
1352.129514  	89.515841 
1353.566421  	89.498365 
1355.003328  	89.481198 
1356.440235  	89.486122 
1357.877142  	89.464683 
1359.314049  	89.435518 
1360.750956  	89.413162 
1362.187863  	89.371606 
1363.624770  	89.348326 
1365.061677  	89.360064 
1366.498584  	89.362077 
1367.935491  	89.329514 
1369.372399  	89.264770 
1370.809306  	89.218669 
1372.246213  	89.191380 
1373.683120  	89.147943 
1375.120027  	89.107604 
1376.556934  	89.079346 
1377.993841  	89.026673 
1379.430748  	88.989763 
1380.867655  	88.947720 
1382.304562  	88.914752 
1383.741469  	88.904319 
1385.178376  	88.905064 
1386.615283  	88.887458 
1388.052190  	88.839343 
1389.489097  	88.826717 
1390.926004  	88.842550 
1392.362911  	88.838837 
1393.799818  	88.847016 
1395.236725  	88.886467 
1396.673632  	88.914932 
1398.110539  	88.962932 
1399.547446  	88.971623 
1400.984353  	88.969520 
1402.421260  	89.043054 
1403.858167  	89.103119 
1405.295074  	89.107812 
1406.731981  	89.112794 
1408.168888  	89.106414 
1409.605795  	89.126202 
1411.042702  	89.131652 
1412.479609  	89.134743 
1413.916516  	89.172867 
1415.353423  	89.190767 
1416.790330  	89.198060 
1418.227238  	89.233480 
1419.664145  	89.186143 
1421.101052  	89.200046 
1422.537959  	89.271979 
1423.974866  	89.271524 
1425.411773  	89.283083 
1426.848680  	89.329354 
1428.285587  	89.328837 
1429.722494  	89.320333 
1431.159401  	89.313936 
1432.596308  	89.327213 
1434.033215  	89.367678 
1435.470122  	89.395554 
1436.907029  	89.372095 
1438.343936  	89.349568 
1439.780843  	89.371237 
1441.217750  	89.396758 
1442.654657  	89.392002 
1444.091564  	89.399354 
1445.528471  	89.424508 
1446.965378  	89.400171 
1448.402285  	89.359411 
1449.839192  	89.337843 
1451.276099  	89.349382 
1452.713006  	89.367540 
1454.149913  	89.371388 
1455.586820  	89.380096 
1457.023727  	89.357785 
1458.460634  	89.280326 
1459.897541  	89.298925 
1461.334448  	89.280871 
1462.771355  	89.259560 
1464.208262  	89.270548 
1465.645169  	89.253773 
1467.082076  	89.256563 
1468.518984  	89.260603 
1469.955891  	89.221713 
1471.392798  	89.173394 
1472.829705  	89.082950 
1474.266612  	89.077791 
1475.703519  	89.150727 
1477.140426  	89.110839 
1478.577333  	89.080611 
1480.014240  	89.098747 
1481.451147  	89.053005 
1482.888054  	89.052430 
1484.324961  	89.080976 
1485.761868  	89.049502 
1487.198775  	89.023951 
1488.635682  	88.979100 
1490.072589  	88.900587 
1491.509496  	88.897899 
1492.946403  	88.897938 
1494.383310  	88.889285 
1495.820217  	88.852278 
1497.257124  	88.747584 
1498.694031  	88.730758 
1500.130938  	88.733540 
1501.567845  	88.692121 
1503.004752  	88.658912 
1504.441659  	88.600671 
1505.878566  	88.578308 
1507.315473  	88.537965 
1508.752380  	88.357297 
1510.189287  	88.346323 
1511.626194  	88.325420 
1513.063101  	88.286285 
1514.500008  	88.267073 
1515.936915  	88.207621 
1517.373822  	88.141423 
1518.810730  	88.122994 
1520.247637  	88.062639 
1521.684544  	87.958090 
1523.121451  	87.872363 
1524.558358  	87.860594 
1525.995265  	87.832475 
1527.432172  	87.744700 
1528.869079  	87.715833 
1530.305986  	87.678338 
1531.742893  	87.564295 
1533.179800  	87.483421 
1534.616707  	87.357744 
1536.053614  	87.267945 
1537.490521  	87.250113 
1538.927428  	87.152927 
1540.364335  	86.906005 
1541.801242  	86.789802 
1543.238149  	86.713822 
1544.675056  	86.662006 
1546.111963  	86.521535 
1547.548870  	86.386936 
1548.985777  	86.287939 
1550.422684  	86.098505 
1551.859591  	85.959724 
1553.296498  	85.890732 
1554.733405  	85.696553 
1556.170312  	85.550482 
1557.607219  	85.459875 
1559.044126  	85.028113 
1560.481033  	84.855948 
1561.917940  	84.869871 
1563.354847  	84.762647 
1564.791754  	84.639182 
1566.228661  	84.402924 
1567.665569  	84.282280 
1569.102476  	84.162861 
1570.539383  	83.815311 
1571.976290  	83.685570 
1573.413197  	83.554184 
1574.850104  	83.347286 
1576.287011  	83.197174 
1577.723918  	82.936958 
1579.160825  	82.756786 
1580.597732  	82.593283 
1582.034639  	82.368878 
1583.471546  	82.217136 
1584.908453  	82.007659 
1586.345360  	81.705652 
1587.782267  	81.468925 
1589.219174  	81.156330 
1590.656081  	80.852238 
1592.092988  	80.598121 
1593.529895  	80.291382 
1594.966802  	80.006172 
1596.403709  	79.679293 
1597.840616  	79.297621 
1599.277523  	78.982630 
1600.714430  	78.554250 
1602.151337  	78.125260 
1603.588244  	77.733479 
1605.025151  	77.238986 
1606.462058  	76.787028 
1607.898965  	76.316022 
1609.335872  	75.772798 
1610.772779  	75.326023 
1612.209686  	74.841433 
1613.646593  	74.350483 
1615.083500  	74.028366 
1616.520407  	73.411967 
1617.957315  	72.812518 
1619.394222  	72.422029 
1620.831129  	71.911095 
1622.268036  	71.606395 
1623.704943  	71.256912 
1625.141850  	70.756749 
1626.578757  	70.480091 
1628.015664  	70.087149 
1629.452571  	69.846051 
1630.889478  	69.767300 
1632.326385  	69.532457 
1633.763292  	69.439942 
1635.200199  	69.403699 
1636.637106  	69.325330 
1638.074013  	69.489632 
1639.510920  	69.446721 
1640.947827  	69.530814 
1642.384734  	69.810796 
1643.821641  	69.865817 
1645.258548  	70.033989 
1646.695455  	70.471567 
1648.132362  	70.794856 
1649.569269  	71.160804 
1651.006176  	71.307915 
1652.443083  	71.352341 
1653.879990  	72.553973 
1655.316897  	72.763768 
1656.753804  	72.965530 
1658.190711  	73.362433 
1659.627618  	73.664611 
1661.064525  	74.103811 
1662.501432  	74.627200 
1663.938339  	75.136349 
1665.375246  	75.607669 
1666.812154  	75.964683 
1668.249061  	76.351839 
1669.685968  	76.938137 
1671.122875  	77.459035 
1672.559782  	77.921834 
1673.996689  	78.356737 
1675.433596  	78.791640 
1676.870503  	79.383225 
1678.307410  	79.839460 
1679.744317  	80.270898 
1681.181224  	80.804120 
1682.618131  	81.184034 
1684.055038  	81.664176 
1685.491945  	82.312649 
1686.928852  	82.582478 
1688.365759  	82.978416 
1689.802666  	83.416644 
1691.239573  	83.808531 
1692.676480  	84.272763 
1694.113387  	84.580961 
1695.550294  	84.872649 
1696.987201  	85.293199 
1698.424108  	85.543891 
1699.861015  	85.816558 
1701.297922  	86.249033 
1702.734829  	86.539436 
1704.171736  	86.862127 
1705.608643  	87.121997 
1707.045550  	87.396875 
1708.482457  	87.767578 
1709.919364  	88.052015 
1711.356271  	88.353258 
1712.793178  	88.655881 
1714.230085  	88.880850 
1715.666992  	89.152695 
1717.103900  	89.431942 
1718.540807  	89.694016 
1719.977714  	90.005571 
1721.414621  	90.223336 
1722.851528  	90.461296 
1724.288435  	90.743239 
1725.725342  	90.955258 
1727.162249  	91.231250 
1728.599156  	91.401030 
1730.036063  	91.492330 
1731.472970  	91.670610 
1732.909877  	91.815372 
1734.346784  	91.872467 
1735.783691  	91.986087 
1737.220598  	92.142171 
1738.657505  	92.296859 
1740.094412  	92.406660 
1741.531319  	92.523985 
1742.968226  	92.684969 
1744.405133  	92.744775 
1745.842040  	92.848682 
1747.278947  	93.011127 
1748.715854  	93.055648 
1750.152761  	93.181089 
1751.589668  	93.327122 
1753.026575  	93.357189 
1754.463482  	93.505789 
1755.900389  	93.598380 
1757.337296  	93.589505 
1758.774203  	93.750593 
1760.211110  	93.872340 
1761.648017  	93.924934 
1763.084924  	93.946582 
1764.521831  	93.974965 
1765.958738  	94.123463 
1767.395646  	94.171863 
1768.832553  	94.180745 
1770.269460  	94.298612 
1771.706367  	94.335385 
1773.143274  	94.309304 
1774.580181  	94.406619 
1776.017088  	94.425236 
1777.453995  	94.456039 
1778.890902  	94.538441 
1780.327809  	94.578584 
1781.764716  	94.603831 
1783.201623  	94.626265 
1784.638530  	94.644502 
1786.075437  	94.674529 
1787.512344  	94.711801 
1788.949251  	94.792550 
1790.386158  	94.867059 
1791.823065  	94.834867 
1793.259972  	94.817367 
1794.696879  	94.854807 
1796.133786  	94.919529 
1797.570693  	94.989171 
1799.007600  	95.001606 
1800.444507  	95.013987 
1801.881414  	95.021455 
1803.318321  	95.034673 
1804.755228  	95.136686 
1806.192135  	95.190406 
1807.629042  	95.189019 
1809.065949  	95.241654 
1810.502856  	95.259676 
1811.939763  	95.274515 
1813.376670  	95.271856 
1814.813577  	95.289235 
1816.250485  	95.343714 
1817.687392  	95.323886 
1819.124299  	95.312028 
1820.561206  	95.369444 
1821.998113  	95.340412 
1823.435020  	95.368030 
1824.871927  	95.418907 
1826.308834  	95.381559 
1827.745741  	95.457362 
1829.182648  	95.510414 
1830.619555  	95.410639 
1832.056462  	95.414470 
1833.493369  	95.454373 
1834.930276  	95.486995 
1836.367183  	95.540403 
1837.804090  	95.539221 
1839.240997  	95.531597 
1840.677904  	95.538891 
1842.114811  	95.545865 
1843.551718  	95.584357 
1844.988625  	95.483938 
1846.425532  	95.499832 
1847.862439  	95.607066 
1849.299346  	95.540190 
1850.736253  	95.532735 
1852.173160  	95.584891 
1853.610067  	95.580225 
1855.046974  	95.638238 
1856.483881  	95.670505 
1857.920788  	95.670242 
1859.357695  	95.695683 
1860.794602  	95.669639 
1862.231509  	95.680282 
1863.668416  	95.708155 
1865.105323  	95.710921 
1866.542231  	95.775101 
1867.979138  	95.763599 
1869.416045  	95.696138 
1870.852952  	95.726779 
1872.289859  	95.740565 
1873.726766  	95.777072 
1875.163673  	95.810364 
1876.600580  	95.752742 
1878.037487  	95.819205 
1879.474394  	95.811432 
1880.911301  	95.700215 
1882.348208  	95.712323 
1883.785115  	95.723650 
1885.222022  	95.736735 
1886.658929  	95.734155 
1888.095836  	95.715913 
1889.532743  	95.749617 
1890.969650  	95.722771 
1892.406557  	95.739027 
1893.843464  	95.814222 
1895.280371  	95.738226 
1896.717278  	95.717304 
1898.154185  	95.765601 
1899.591092  	95.643893 
1901.027999  	95.678551 
1902.464906  	95.709911 
1903.901813  	95.674271 
1905.338720  	95.708385 
1906.775627  	95.722419 
1908.212534  	95.711251 
1909.649441  	95.721254 
1911.086348  	95.669784 
1912.523255  	95.674930 
1913.960162  	95.656919 
1915.397069  	95.624031 
1916.833977  	95.728605 
1918.270884  	95.695288 
1919.707791  	95.646937 
1921.144698  	95.748283 
1922.581605  	95.726138 
1924.018512  	95.732359 
1925.455419  	95.795920 
1926.892326  	95.711153 
1928.329233  	95.732996 
1929.766140  	95.869040 
1931.203047  	95.780357 
1932.639954  	95.736892 
1934.076861  	95.702084 
1935.513768  	95.804634 
1936.950675  	95.794145 
1938.387582  	95.524708 
1939.824489  	95.452226 
1941.261396  	95.444825 
1942.698303  	95.520640 
1944.135210  	95.766998 
1945.572117  	95.673228 
1947.009024  	95.629102 
1948.445931  	95.732340 
1949.882838  	95.767771 
1951.319745  	95.850634 
1952.756652  	95.812495 
1954.193559  	95.768781 
1955.630466  	95.851144 
1957.067373  	95.704578 
1958.504280  	95.620840 
1959.941187  	95.633310 
1961.378094  	95.530279 
1962.815001  	95.652546 
1964.251908  	95.689014 
1965.688816  	95.541763 
1967.125723  	95.588144 
1968.562630  	95.430442 
1969.999537  	95.064311 
1971.436444  	94.873483 
1972.873351  	94.777438 
1974.310258  	95.291908 
1975.747165  	95.599532 
1977.184072  	95.270445 
1978.620979  	95.252704 
1980.057886  	95.149917 
1981.494793  	95.025048 
1982.931700  	95.045513 
1984.368607  	94.881746 
1985.805514  	94.914263 
1987.242421  	94.949242 
1988.679328  	94.868648 
1990.116235  	94.941728 
1991.553142  	94.927582 
1992.990049  	94.833446 
1994.426956  	94.862977 
1995.863863  	94.855714 
1997.300770  	94.945846 
1998.737677  	95.006639 
2000.174584  	94.969929 
2001.611491  	95.112473 
2003.048398  	94.941106 
2004.485305  	94.740037 
2005.922212  	94.850999 
2007.359119  	94.744814 
2008.796026  	94.806166 
2010.232933  	94.992743 
2011.669840  	94.989810 
2013.106747  	95.154890 
2014.543654  	94.987164 
2015.980562  	94.681736 
2017.417469  	94.787596 
2018.854376  	94.941945 
2020.291283  	95.089329 
2021.728190  	94.808097 
2023.165097  	94.345474 
2024.602004  	94.415830 
2026.038911  	94.204236 
2027.475818  	93.991841 
2028.912725  	94.414885 
2030.349632  	94.549332 
2031.786539  	94.648602 
2033.223446  	94.749815 
2034.660353  	94.420125 
2036.097260  	94.317851 
2037.534167  	94.080564 
2038.971074  	93.847561 
2040.407981  	94.137870 
2041.844888  	94.133535 
2043.281795  	94.066183 
2044.718702  	94.238909 
2046.155609  	94.102444 
2047.592516  	94.135209 
2049.029423  	94.175190 
2050.466330  	93.889045 
2051.903237  	93.903161 
2053.340144  	94.032760 
2054.777051  	94.044240 
2056.213958  	94.121123 
2057.650865  	94.146288 
2059.087772  	94.184676 
2060.524679  	94.162804 
2061.961586  	94.011386 
2063.398493  	93.932860 
2064.835401  	93.893240 
2066.272308  	93.962647 
2067.709215  	94.021184 
2069.146122  	93.905203 
2070.583029  	94.017218 
2072.019936  	94.178740 
2073.456843  	94.054387 
2074.893750  	93.988840 
2076.330657  	93.962166 
2077.767564  	93.897596 
2079.204471  	93.903244 
2080.641378  	93.900359 
2082.078285  	93.992756 
2083.515192  	94.042673 
2084.952099  	93.917973 
2086.389006  	93.917858 
2087.825913  	93.948744 
2089.262820  	93.909203 
2090.699727  	93.956345 
2092.136634  	93.974001 
2093.573541  	93.975824 
2095.010448  	93.982737 
2096.447355  	93.898552 
2097.884262  	93.818202 
2099.321169  	93.785476 
2100.758076  	93.909862 
2102.194983  	94.048107 
2103.631890  	93.909295 
2105.068797  	93.867389 
2106.505704  	93.976205 
2107.942611  	93.905975 
2109.379518  	93.933286 
2110.816425  	94.040828 
2112.253332  	93.923602 
2113.690239  	93.749913 
2115.127147  	93.717942 
2116.564054  	93.854314 
2118.000961  	93.958332 
2119.437868  	93.936788 
2120.874775  	94.019559 
2122.311682  	94.047886 
2123.748589  	93.946077 
2125.185496  	93.988892 
2126.622403  	94.077450 
2128.059310  	94.113437 
2129.496217  	94.121721 
2130.933124  	94.228206 
2132.370031  	94.564518 
2133.806938  	94.556066 
2135.243845  	94.262272 
2136.680752  	94.373523 
2138.117659  	94.376153 
2139.554566  	94.231099 
2140.991473  	94.413785 
2142.428380  	94.510205 
2143.865287  	94.507751 
2145.302194  	94.369341 
2146.739101  	94.090228 
2148.176008  	94.182539 
2149.612915  	94.216730 
2151.049822  	94.145575 
2152.486729  	94.472817 
2153.923636  	94.677404 
2155.360543  	94.939631 
2156.797450  	95.169430 
2158.234357  	94.561304 
2159.671264  	94.118001 
2161.108171  	94.224400 
2162.545078  	94.181990 
2163.981985  	94.191204 
2165.418893  	94.254953 
2166.855800  	94.357519 
2168.292707  	94.296290 
2169.729614  	94.082955 
2171.166521  	94.238017 
2172.603428  	94.432956 
2174.040335  	94.470842 
2175.477242  	94.580782 
2176.914149  	94.365586 
2178.351056  	94.187798 
2179.787963  	94.365021 
2181.224870  	94.354917 
2182.661777  	94.184576 
2184.098684  	93.987484 
2185.535591  	93.924120 
2186.972498  	94.158697 
2188.409405  	94.225556 
2189.846312  	94.148032 
2191.283219  	94.180162 
2192.720126  	94.168883 
2194.157033  	94.197358 
2195.593940  	94.201089 
2197.030847  	94.248641 
2198.467754  	94.488955 
2199.904661  	94.501658 
2201.341568  	94.389294 
2202.778475  	94.391621 
2204.215382  	94.337539 
2205.652289  	94.378921 
2207.089196  	94.407393 
2208.526103  	94.360880 
2209.963010  	94.461010 
2211.399917  	94.404043 
2212.836824  	94.317200 
2214.273732  	94.512958 
2215.710639  	94.662519 
2217.147546  	94.764466 
2218.584453  	94.802592 
2220.021360  	94.715337 
2221.458267  	94.787630 
2222.895174  	94.807639 
2224.332081  	94.669262 
2225.768988  	94.638920 
2227.205895  	94.679995 
2228.642802  	94.763305 
2230.079709  	94.708094 
2231.516616  	94.500203 
2232.953523  	94.491443 
2234.390430  	94.507449 
2235.827337  	94.498655 
2237.264244  	94.719791 
2238.701151  	94.831904 
2240.138058  	94.735499 
2241.574965  	94.719806 
2243.011872  	94.759893 
2244.448779  	94.784323 
2245.885686  	94.774654 
2247.322593  	94.828965 
2248.759500  	94.958558 
2250.196407  	94.975792 
2251.633314  	95.019119 
2253.070221  	95.080844 
2254.507128  	95.024947 
2255.944035  	95.027168 
2257.380942  	95.075676 
2258.817849  	95.104416 
2260.254756  	95.182527 
2261.691663  	95.191872 
2263.128570  	95.135402 
2264.565478  	95.122124 
2266.002385  	95.122164 
2267.439292  	95.117566 
2268.876199  	95.093928 
2270.313106  	95.109468 
2271.750013  	95.144832 
2273.186920  	95.119497 
2274.623827  	95.137980 
2276.060734  	95.180839 
2277.497641  	95.171366 
2278.934548  	95.201295 
2280.371455  	95.184320 
2281.808362  	95.117389 
2283.245269  	95.133880 
2284.682176  	95.135815 
2286.119083  	95.091147 
2287.555990  	95.032020 
2288.992897  	94.964538 
2290.429804  	94.994816 
2291.866711  	95.078053 
2293.303618  	95.081136 
2294.740525  	95.062333 
2296.177432  	95.056232 
2297.614339  	95.085441 
2299.051246  	95.158361 
2300.488153  	95.234442 
2301.925060  	95.270042 
2303.361967  	95.260444 
2304.798874  	95.210388 
2306.235781  	95.209469 
2307.672688  	95.220192 
2309.109595  	95.234921 
2310.546502  	95.251024 
2311.983409  	95.223471 
2313.420317  	95.244032 
2314.857224  	95.257333 
2316.294131  	95.180051 
2317.731038  	95.129307 
2319.167945  	95.070350 
2320.604852  	94.973047 
2322.041759  	94.893467 
2323.478666  	94.793494 
2324.915573  	94.781375 
2326.352480  	94.871050 
2327.789387  	94.921543 
2329.226294  	94.967659 
2330.663201  	95.031918 
2332.100108  	95.101361 
2333.537015  	95.204893 
2334.973922  	95.253006 
2336.410829  	95.269170 
2337.847736  	95.334238 
2339.284643  	95.401041 
2340.721550  	95.454843 
2342.158457  	95.495762 
2343.595364  	95.541966 
2345.032271  	95.552062 
2346.469178  	95.475208 
2347.906085  	95.450870 
2349.342992  	95.493745 
2350.779899  	95.583297 
2352.216806  	95.733985 
2353.653713  	95.814115 
2355.090620  	95.807092 
2356.527527  	95.877721 
2357.964434  	95.883062 
2359.401341  	95.823292 
2360.838248  	95.848584 
2362.275155  	95.857219 
2363.712063  	95.912047 
2365.148970  	95.954279 
2366.585877  	95.901121 
2368.022784  	95.947155 
2369.459691  	95.953798 
2370.896598  	95.862488 
2372.333505  	95.893556 
2373.770412  	95.948858 
2375.207319  	95.907672 
2376.644226  	95.836000 
2378.081133  	95.800959 
2379.518040  	95.805006 
2380.954947  	95.793205 
2382.391854  	95.832299 
2383.828761  	95.946919 
2385.265668  	96.006723 
2386.702575  	96.043354 
2388.139482  	96.107053 
2389.576389  	96.123392 
2391.013296  	96.110444 
2392.450203  	96.150213 
2393.887110  	96.222193 
2395.324017  	96.279382 
2396.760924  	96.310407 
2398.197831  	96.351798 
2399.634738  	96.387548 
2401.071645  	96.379233 
2402.508552  	96.394112 
2403.945459  	96.447421 
2405.382366  	96.467613 
2406.819273  	96.442125 
2408.256180  	96.399878 
2409.693087  	96.373789 
2411.129994  	96.365074 
2412.566901  	96.358571 
2414.003809  	96.349958 
2415.440716  	96.334489 
2416.877623  	96.350093 
2418.314530  	96.383552 
2419.751437  	96.368408 
2421.188344  	96.350780 
2422.625251  	96.372248 
2424.062158  	96.406273 
2425.499065  	96.431703 
2426.935972  	96.421543 
2428.372879  	96.425489 
2429.809786  	96.451665 
2431.246693  	96.438317 
2432.683600  	96.463359 
2434.120507  	96.537249 
2435.557414  	96.574369 
2436.994321  	96.591336 
2438.431228  	96.552921 
2439.868135  	96.496512 
2441.305042  	96.531410 
2442.741949  	96.570879 
2444.178856  	96.576375 
2445.615763  	96.600070 
2447.052670  	96.604023 
2448.489577  	96.600185 
2449.926484  	96.594542 
2451.363391  	96.573471 
2452.800298  	96.573882 
2454.237205  	96.582844 
2455.674112  	96.600558 
2457.111019  	96.615833 
2458.547926  	96.592307 
2459.984833  	96.583730 
2461.421740  	96.591340 
2462.858648  	96.592057 
2464.295555  	96.626783 
2465.732462  	96.659136 
2467.169369  	96.661610 
2468.606276  	96.653395 
2470.043183  	96.639963 
2471.480090  	96.643836 
2472.916997  	96.638690 
2474.353904  	96.646262 
2475.790811  	96.687620 
2477.227718  	96.669871 
2478.664625  	96.662130 
2480.101532  	96.729857 
2481.538439  	96.733678 
2482.975346  	96.696667 
2484.412253  	96.702795 
2485.849160  	96.728372 
2487.286067  	96.794445 
2488.722974  	96.843433 
2490.159881  	96.821940 
2491.596788  	96.801198 
2493.033695  	96.799516 
2494.470602  	96.799726 
2495.907509  	96.790272 
2497.344416  	96.776196 
2498.781323  	96.770772 
2500.218230  	96.761411 
2501.655137  	96.801792 
2503.092044  	96.854140 
2504.528951  	96.812825 
2505.965858  	96.782415 
2507.402765  	96.803028 
2508.839672  	96.810476 
2510.276579  	96.842351 
2511.713486  	96.835883 
2513.150394  	96.789400 
2514.587301  	96.806830 
2516.024208  	96.834340 
2517.461115  	96.862829 
2518.898022  	96.882292 
2520.334929  	96.839270 
2521.771836  	96.851356 
2523.208743  	96.899267 
2524.645650  	96.875833 
2526.082557  	96.867405 
2527.519464  	96.885023 
2528.956371  	96.898046 
2530.393278  	96.914749 
2531.830185  	96.891264 
2533.267092  	96.872818 
2534.703999  	96.860756 
2536.140906  	96.808212 
2537.577813  	96.798550 
2539.014720  	96.835376 
2540.451627  	96.850088 
2541.888534  	96.845101 
2543.325441  	96.837867 
2544.762348  	96.863150 
2546.199255  	96.881344 
2547.636162  	96.869989 
2549.073069  	96.910762 
2550.509976  	96.958199 
2551.946883  	96.950242 
2553.383790  	96.935076 
2554.820697  	96.918513 
2556.257604  	96.901010 
2557.694511  	96.883222 
2559.131418  	96.890141 
2560.568325  	96.937795 
2562.005232  	96.911921 
2563.442140  	96.835186 
2564.879047  	96.843878 
2566.315954  	96.871913 
2567.752861  	96.877477 
2569.189768  	96.912196 
2570.626675  	96.939186 
2572.063582  	96.935235 
2573.500489  	96.901287 
2574.937396  	96.858669 
2576.374303  	96.848027 
2577.811210  	96.851440 
2579.248117  	96.865470 
2580.685024  	96.888913 
2582.121931  	96.901400 
2583.558838  	96.905714 
2584.995745  	96.873920 
2586.432652  	96.848244 
2587.869559  	96.881814 
2589.306466  	96.892216 
2590.743373  	96.880263 
2592.180280  	96.895018 
2593.617187  	96.874728 
2595.054094  	96.835543 
2596.491001  	96.836501 
2597.927908  	96.843186 
2599.364815  	96.829875 
2600.801722  	96.833083 
2602.238629  	96.877306 
2603.675536  	96.893998 
2605.112443  	96.851675 
2606.549350  	96.829882 
2607.986257  	96.822744 
2609.423164  	96.799199 
2610.860071  	96.801957 
2612.296979  	96.818339 
2613.733886  	96.825112 
2615.170793  	96.819446 
2616.607700  	96.798791 
2618.044607  	96.807353 
2619.481514  	96.837878 
2620.918421  	96.849071 
2622.355328  	96.846922 
2623.792235  	96.823981 
2625.229142  	96.796547 
2626.666049  	96.790907 
2628.102956  	96.802731 
2629.539863  	96.826171 
2630.976770  	96.810484 
2632.413677  	96.765249 
2633.850584  	96.766032 
2635.287491  	96.769316 
2636.724398  	96.750959 
2638.161305  	96.766356 
2639.598212  	96.780363 
2641.035119  	96.766196 
2642.472026  	96.760414 
2643.908933  	96.763539 
2645.345840  	96.763220 
2646.782747  	96.759276 
2648.219654  	96.761881 
2649.656561  	96.765783 
2651.093468  	96.755967 
2652.530375  	96.754507 
2653.967282  	96.760175 
2655.404189  	96.755568 
2656.841096  	96.753948 
2658.278003  	96.748659 
2659.714910  	96.752003 
2661.151817  	96.777223 
2662.588725  	96.784935 
2664.025632  	96.781844 
2665.462539  	96.794710 
2666.899446  	96.810204 
2668.336353  	96.824362 
2669.773260  	96.818646 
2671.210167  	96.798003 
2672.647074  	96.799788 
2674.083981  	96.808614 
2675.520888  	96.816445 
2676.957795  	96.829938 
2678.394702  	96.823710 
2679.831609  	96.799125 
2681.268516  	96.774247 
2682.705423  	96.777148 
2684.142330  	96.809083 
2685.579237  	96.799326 
2687.016144  	96.760426 
2688.453051  	96.768237 
2689.889958  	96.785252 
2691.326865  	96.769387 
2692.763772  	96.759459 
2694.200679  	96.774943 
2695.637586  	96.783375 
2697.074493  	96.750668 
2698.511400  	96.709823 
2699.948307  	96.710569 
2701.385214  	96.735494 
2702.822121  	96.749475 
2704.259028  	96.738609 
2705.695935  	96.720028 
2707.132842  	96.722437 
2708.569749  	96.730264 
2710.006656  	96.726357 
2711.443564  	96.716267 
2712.880471  	96.707714 
2714.317378  	96.713296 
2715.754285  	96.709868 
2717.191192  	96.684722 
2718.628099  	96.670926 
2720.065006  	96.668593 
2721.501913  	96.665842 
2722.938820  	96.654454 
2724.375727  	96.632091 
2725.812634  	96.634532 
2727.249541  	96.641393 
2728.686448  	96.620169 
2730.123355  	96.614929 
2731.560262  	96.614591 
2732.997169  	96.591301 
2734.434076  	96.576932 
2735.870983  	96.566239 
2737.307890  	96.557572 
2738.744797  	96.554710 
2740.181704  	96.533354 
2741.618611  	96.517355 
2743.055518  	96.508207 
2744.492425  	96.485665 
2745.929332  	96.489106 
2747.366239  	96.501759 
2748.803146  	96.482181 
2750.240053  	96.465802 
2751.676960  	96.453894 
2753.113867  	96.424505 
2754.550774  	96.407322 
2755.987681  	96.403852 
2757.424588  	96.387842 
2758.861495  	96.375822 
2760.298402  	96.376423 
2761.735310  	96.357911 
2763.172217  	96.327676 
2764.609124  	96.314719 
2766.046031  	96.299722 
2767.482938  	96.279809 
2768.919845  	96.270046 
2770.356752  	96.254875 
2771.793659  	96.242992 
2773.230566  	96.238431 
2774.667473  	96.220524 
2776.104380  	96.202492 
2777.541287  	96.181583 
2778.978194  	96.147219 
2780.415101  	96.128130 
2781.852008  	96.124481 
2783.288915  	96.114894 
2784.725822  	96.098839 
2786.162729  	96.077586 
2787.599636  	96.048924 
2789.036543  	96.018760 
2790.473450  	96.020130 
2791.910357  	96.039053 
2793.347264  	96.009616 
2794.784171  	95.966185 
2796.221078  	95.958608 
2797.657985  	95.941899 
2799.094892  	95.909667 
2800.531799  	95.884461 
2801.968706  	95.868672 
2803.405613  	95.867858 
2804.842520  	95.842437 
2806.279427  	95.786605 
2807.716334  	95.744814 
2809.153241  	95.711514 
2810.590148  	95.694832 
2812.027056  	95.695551 
2813.463963  	95.677239 
2814.900870  	95.658694 
2816.337777  	95.636760 
2817.774684  	95.590551 
2819.211591  	95.563133 
2820.648498  	95.550481 
2822.085405  	95.525106 
2823.522312  	95.501057 
2824.959219  	95.462581 
2826.396126  	95.410449 
2827.833033  	95.376549 
2829.269940  	95.367105 
2830.706847  	95.372810 
2832.143754  	95.356769 
2833.580661  	95.308124 
2835.017568  	95.268378 
2836.454475  	95.240307 
2837.891382  	95.214194 
2839.328289  	95.201433 
2840.765196  	95.183310 
2842.202103  	95.138529 
2843.639010  	95.080206 
2845.075917  	95.039867 
2846.512824  	95.022745 
2847.949731  	95.000926 
2849.386638  	94.970125 
2850.823545  	94.927810 
2852.260452  	94.866524 
2853.697359  	94.819007 
2855.134266  	94.791007 
2856.571173  	94.757604 
2858.008080  	94.718653 
2859.444987  	94.667718 
2860.881895  	94.624423 
2862.318802  	94.607538 
2863.755709  	94.567923 
2865.192616  	94.504675 
2866.629523  	94.461905 
2868.066430  	94.416659 
2869.503337  	94.359593 
2870.940244  	94.315913 
2872.377151  	94.275487 
2873.814058  	94.228370 
2875.250965  	94.172004 
2876.687872  	94.112508 
2878.124779  	94.079123 
2879.561686  	94.054950 
2880.998593  	93.995988 
2882.435500  	93.922342 
2883.872407  	93.870787 
2885.309314  	93.828263 
2886.746221  	93.780204 
2888.183128  	93.734694 
2889.620035  	93.677584 
2891.056942  	93.596925 
2892.493849  	93.520864 
2893.930756  	93.461196 
2895.367663  	93.420338 
2896.804570  	93.412928 
2898.241477  	93.388915 
2899.678384  	93.308277 
2901.115291  	93.227625 
2902.552198  	93.169439 
2903.989105  	93.117107 
2905.426012  	93.081885 
2906.862919  	93.031693 
2908.299826  	92.945501 
2909.736733  	92.861400 
2911.173641  	92.789639 
2912.610548  	92.733508 
2914.047455  	92.688837 
2915.484362  	92.616188 
2916.921269  	92.523002 
2918.358176  	92.445153 
2919.795083  	92.385836 
2921.231990  	92.329574 
2922.668897  	92.247361 
2924.105804  	92.153271 
2925.542711  	92.082975 
2926.979618  	92.009260 
2928.416525  	91.921380 
2929.853432  	91.843684 
2931.290339  	91.756925 
2932.727246  	91.655753 
2934.164153  	91.573667 
2935.601060  	91.510639 
2937.037967  	91.434972 
2938.474874  	91.340629 
2939.911781  	91.246233 
2941.348688  	91.153474 
2942.785595  	91.064980 
2944.222502  	90.981150 
2945.659409  	90.876591 
2947.096316  	90.768956 
2948.533223  	90.690155 
2949.970130  	90.610813 
2951.407037  	90.517801 
2952.843944  	90.412758 
2954.280851  	90.278117 
2955.717758  	90.152904 
2957.154665  	90.081076 
2958.591572  	90.027623 
2960.028479  	89.942387 
2961.465387  	89.825299 
2962.902294  	89.698268 
2964.339201  	89.559365 
2965.776108  	89.426243 
2967.213015  	89.328583 
2968.649922  	89.220345 
2970.086829  	89.074853 
2971.523736  	88.946801 
2972.960643  	88.846929 
2974.397550  	88.743220 
2975.834457  	88.627994 
2977.271364  	88.507217 
2978.708271  	88.378644 
2980.145178  	88.229244 
2981.582085  	88.079125 
2983.018992  	87.959306 
2984.455899  	87.859375 
2985.892806  	87.755856 
2987.329713  	87.628472 
2988.766620  	87.501785 
2990.203527  	87.398255 
2991.640434  	87.266739 
2993.077341  	87.122541 
2994.514248  	87.011182 
2995.951155  	86.885202 
2997.388062  	86.743040 
2998.824969  	86.605646 
3000.261876  	86.454890 
3001.698783  	86.314147 
3003.135690  	86.172973 
3004.572597  	86.008823 
3006.009504  	85.843096 
3007.446411  	85.679147 
3008.883318  	85.543346 
3010.320226  	85.415066 
3011.757133  	85.237177 
3013.194040  	85.068359 
3014.630947  	84.930715 
3016.067854  	84.760334 
3017.504761  	84.553423 
3018.941668  	84.348947 
3020.378575  	84.191640 
3021.815482  	84.042366 
3023.252389  	83.847122 
3024.689296  	83.669335 
3026.126203  	83.512258 
3027.563110  	83.342968 
3029.000017  	83.173142 
3030.436924  	82.962318 
3031.873831  	82.751045 
3033.310738  	82.573880 
3034.747645  	82.355780 
3036.184552  	82.131569 
3037.621459  	81.934595 
3039.058366  	81.754989 
3040.495273  	81.603918 
3041.932180  	81.397730 
3043.369087  	81.155592 
3044.805994  	80.945502 
3046.242901  	80.713789 
3047.679808  	80.506787 
3049.116715  	80.317428 
3050.553622  	80.073946 
3051.990529  	79.851571 
3053.427436  	79.620183 
3054.864343  	79.362925 
3056.301250  	79.164849 
3057.738157  	78.959599 
3059.175064  	78.736522 
3060.611972  	78.519536 
3062.048879  	78.263291 
3063.485786  	78.020168 
3064.922693  	77.774170 
3066.359600  	77.517269 
3067.796507  	77.306422 
3069.233414  	77.066845 
3070.670321  	76.811747 
3072.107228  	76.570065 
3073.544135  	76.292511 
3074.981042  	76.032092 
3076.417949  	75.757957 
3077.854856  	75.475767 
3079.291763  	75.247409 
3080.728670  	74.968389 
3082.165577  	74.694315 
3083.602484  	74.457594 
3085.039391  	74.145328 
3086.476298  	73.874720 
3087.913205  	73.631115 
3089.350112  	73.335850 
3090.787019  	73.084470 
3092.223926  	72.775656 
3093.660833  	72.451337 
3095.097740  	72.240625 
3096.534647  	71.972066 
3097.971554  	71.647105 
3099.408461  	71.334838 
3100.845368  	71.019556 
3102.282275  	70.769684 
3103.719182  	70.479686 
3105.156089  	70.174056 
3106.592996  	69.932713 
3108.029903  	69.594239 
3109.466811  	69.253306 
3110.903718  	68.980948 
3112.340625  	68.668544 
3113.777532  	68.392272 
3115.214439  	68.069792 
3116.651346  	67.714989 
3118.088253  	67.468809 
3119.525160  	67.172413 
3120.962067  	66.874845 
3122.398974  	66.607468 
3123.835881  	66.228066 
3125.272788  	65.929043 
3126.709695  	65.681018 
3128.146602  	65.349099 
3129.583509  	65.075226 
3131.020416  	64.785397 
3132.457323  	64.482916 
3133.894230  	64.215660 
3135.331137  	63.854644 
3136.768044  	63.524223 
3138.204951  	63.230293 
3139.641858  	62.888918 
3141.078765  	62.610470 
3142.515672  	62.317713 
3143.952579  	62.026750 
3145.389486  	61.779855 
3146.826393  	61.463058 
3148.263300  	61.173638 
3149.700207  	60.863475 
3151.137114  	60.497855 
3152.574021  	60.240922 
3154.010928  	59.971684 
3155.447835  	59.713530 
3156.884742  	59.499674 
3158.321649  	59.153443 
3159.758557  	58.851234 
3161.195464  	58.597829 
3162.632371  	58.282834 
3164.069278  	58.056241 
3165.506185  	57.771391 
3166.943092  	57.455236 
3168.379999  	57.240681 
3169.816906  	56.930554 
3171.253813  	56.655642 
3172.690720  	56.446805 
3174.127627  	56.156741 
3175.564534  	55.933817 
3177.001441  	55.676417 
3178.438348  	55.396622 
3179.875255  	55.205873 
3181.312162  	54.906273 
3182.749069  	54.655897 
3184.185976  	54.480888 
3185.622883  	54.219909 
3187.059790  	54.051161 
3188.496697  	53.822701 
3189.933604  	53.550081 
3191.370511  	53.430580 
3192.807418  	53.180962 
3194.244325  	52.939175 
3195.681232  	52.824271 
3197.118139  	52.580747 
3198.555046  	52.408920 
3199.991953  	52.259781 
3201.428860  	52.011738 
3202.865767  	51.861616 
3204.302674  	51.657391 
3205.739581  	51.468320 
3207.176488  	51.365559 
3208.613395  	51.143705 
3210.050303  	51.002778 
3211.487210  	50.890283 
3212.924117  	50.704151 
3214.361024  	50.635731 
3215.797931  	50.467595 
3217.234838  	50.272779 
3218.671745  	50.218655 
3220.108652  	50.081783 
3221.545559  	49.988252 
3222.982466  	49.889091 
3224.419373  	49.715802 
3225.856280  	49.708189 
3227.293187  	49.620698 
3228.730094  	49.438628 
3230.167001  	49.363611 
3231.603908  	49.223497 
3233.040815  	49.148276 
3234.477722  	49.113385 
3235.914629  	49.018457 
3237.351536  	49.037855 
3238.788443  	48.946107 
3240.225350  	48.814587 
3241.662257  	48.829361 
3243.099164  	48.723849 
3244.536071  	48.660574 
3245.972978  	48.648417 
3247.409885  	48.536814 
3248.846792  	48.568792 
3250.283699  	48.534759 
3251.720606  	48.428039 
3253.157513  	48.478896 
3254.594420  	48.409440 
3256.031327  	48.346028 
3257.468234  	48.367999 
3258.905142  	48.281671 
3260.342049  	48.298993 
3261.778956  	48.291787 
3263.215863  	48.221916 
3264.652770  	48.276357 
3266.089677  	48.218921 
3267.526584  	48.192795 
3268.963491  	48.230094 
3270.400398  	48.100052 
3271.837305  	48.108184 
3273.274212  	48.169528 
3274.711119  	48.127977 
3276.148026  	48.196798 
3277.584933  	48.194389 
3279.021840  	48.176320 
3280.458747  	48.203323 
3281.895654  	48.117167 
3283.332561  	48.138659 
3284.769468  	48.131053 
3286.206375  	48.027108 
3287.643282  	48.084433 
3289.080189  	48.067319 
3290.517096  	48.033750 
3291.954003  	48.077164 
3293.390910  	48.004764 
3294.827817  	48.055584 
3296.264724  	48.091713 
3297.701631  	48.013620 
3299.138538  	48.105270 
3300.575445  	48.075085 
3302.012352  	47.994864 
3303.449259  	48.072462 
3304.886166  	48.017550 
3306.323073  	48.021236 
3307.759980  	48.055995 
3309.196888  	47.972573 
3310.633795  	48.065261 
3312.070702  	48.095551 
3313.507609  	48.040675 
3314.944516  	48.096137 
3316.381423  	48.018546 
3317.818330  	48.028732 
3319.255237  	48.115343 
3320.692144  	48.042764 
3322.129051  	48.090905 
3323.565958  	48.082664 
3325.002865  	47.997327 
3326.439772  	48.088663 
3327.876679  	48.069123 
3329.313586  	48.064715 
3330.750493  	48.146530 
3332.187400  	48.101524 
3333.624307  	48.149220 
3335.061214  	48.125882 
3336.498121  	48.025691 
3337.935028  	48.134499 
3339.371935  	48.153198 
3340.808842  	48.162063 
3342.245749  	48.231944 
3343.682656  	48.143112 
3345.119563  	48.186444 
3346.556470  	48.255869 
3347.993377  	48.241107 
3349.430284  	48.373645 
3350.867191  	48.365262 
3352.304098  	48.316127 
3353.741005  	48.403711 
3355.177912  	48.383622 
3356.614819  	48.473169 
3358.051726  	48.591235 
3359.488634  	48.572399 
3360.925541  	48.663193 
3362.362448  	48.693829 
3363.799355  	48.726127 
3365.236262  	48.855695 
3366.673169  	48.845026 
3368.110076  	48.932520 
3369.546983  	49.045116 
3370.983890  	49.037222 
3372.420797  	49.186450 
3373.857704  	49.273093 
3375.294611  	49.299250 
3376.731518  	49.442895 
3378.168425  	49.494555 
3379.605332  	49.619590 
3381.042239  	49.770735 
3382.479146  	49.820907 
3383.916053  	50.016503 
3385.352960  	50.146357 
3386.789867  	50.223280 
3388.226774  	50.406269 
3389.663681  	50.438257 
3391.100588  	50.513361 
3392.537495  	50.685155 
3393.974402  	50.794385 
3395.411309  	50.996394 
3396.848216  	51.123992 
3398.285123  	51.248215 
3399.722030  	51.463592 
3401.158937  	51.505582 
3402.595844  	51.643931 
3404.032751  	51.859860 
3405.469658  	51.959309 
3406.906565  	52.217973 
3408.343473  	52.380652 
3409.780380  	52.450031 
3411.217287  	52.711355 
3412.654194  	52.852622 
3414.091101  	53.025041 
3415.528008  	53.311738 
3416.964915  	53.442307 
3418.401822  	53.636930 
3419.838729  	53.791864 
3421.275636  	53.903548 
3422.712543  	54.236470 
3424.149450  	54.460891 
3425.586357  	54.628351 
3427.023264  	54.842162 
3428.460171  	54.933789 
3429.897078  	55.154345 
3431.333985  	55.376982 
3432.770892  	55.509518 
3434.207799  	55.775257 
3435.644706  	55.925710 
3437.081613  	56.092676 
3438.518520  	56.395484 
3439.955427  	56.552836 
3441.392334  	56.813418 
3442.829241  	57.124593 
3444.266148  	57.262437 
3445.703055  	57.471179 
3447.139962  	57.675955 
3448.576869  	57.908066 
3450.013776  	58.183183 
3451.450683  	58.303691 
3452.887590  	58.502481 
3454.324497  	58.748783 
3455.761404  	58.956898 
3457.198311  	59.279379 
3458.635219  	59.450074 
3460.072126  	59.575577 
3461.509033  	59.847136 
3462.945940  	60.033836 
3464.382847  	60.288307 
3465.819754  	60.530406 
3467.256661  	60.656625 
3468.693568  	60.929905 
3470.130475  	61.139633 
3471.567382  	61.341500 
3473.004289  	61.661701 
3474.441196  	61.804740 
3475.878103  	62.069357 
3477.315010  	62.459242 
3478.751917  	62.572037 
3480.188824  	62.680927 
3481.625731  	62.874982 
3483.062638  	63.120865 
3484.499545  	63.453807 
3485.936452  	63.611315 
3487.373359  	63.784598 
3488.810266  	64.074009 
3490.247173  	64.236324 
3491.684080  	64.434283 
3493.120987  	64.659193 
3494.557894  	64.884166 
3495.994801  	65.202518 
3497.431708  	65.432442 
3498.868615  	65.656778 
3500.305522  	65.862284 
3501.742429  	65.943912 
3503.179336  	66.194098 
3504.616243  	66.526662 
3506.053150  	66.791390 
3507.490058  	67.070759 
3508.926965  	67.205617 
3510.363872  	67.371744 
3511.800779  	67.637932 
3513.237686  	67.816204 
3514.674593  	68.125668 
3516.111500  	68.411295 
3517.548407  	68.527347 
3518.985314  	68.737799 
3520.422221  	68.930354 
3521.859128  	69.105270 
3523.296035  	69.360494 
3524.732942  	69.571830 
3526.169849  	69.873531 
3527.606756  	70.156450 
3529.043663  	70.320282 
3530.480570  	70.600513 
3531.917477  	70.861349 
3533.354384  	71.094871 
3534.791291  	71.389399 
3536.228198  	71.585873 
3537.665105  	71.783448 
3539.102012  	72.020153 
3540.538919  	72.200462 
3541.975826  	72.410665 
3543.412733  	72.591971 
3544.849640  	72.807904 
3546.286547  	73.091321 
3547.723454  	73.355376 
3549.160361  	73.568837 
3550.597268  	73.723124 
3552.034175  	73.892520 
3553.471082  	74.176445 
3554.907989  	74.416615 
3556.344896  	74.651188 
3557.781804  	74.921461 
3559.218711  	75.120661 
3560.655618  	75.313594 
3562.092525  	75.511331 
3563.529432  	75.705480 
3564.966339  	75.954267 
3566.403246  	76.226390 
3567.840153  	76.487621 
3569.277060  	76.671836 
3570.713967  	76.776747 
3572.150874  	76.933058 
3573.587781  	77.141728 
3575.024688  	77.394023 
3576.461595  	77.724419 
3577.898502  	77.926755 
3579.335409  	78.085924 
3580.772316  	78.331044 
3582.209223  	78.489543 
3583.646130  	78.636502 
3585.083037  	78.819475 
3586.519944  	79.081203 
3587.956851  	79.524655 
3589.393758  	79.709283 
3590.830665  	79.758601 
3592.267572  	79.917874 
3593.704479  	80.049312 
3595.141386  	80.367862 
3596.578293  	80.762188 
3598.015200  	80.949771 
3599.452107  	81.184002 
3600.889014  	81.311426 
3602.325921  	81.260262 
3603.762828  	81.373762 
3605.199735  	81.592981 
3606.636642  	81.929326 
3608.073550  	82.322913 
3609.510457  	82.490310 
3610.947364  	82.605577 
3612.384271  	82.696132 
3613.821178  	82.744335 
3615.258085  	83.022509 
3616.694992  	83.403188 
3618.131899  	83.836305 
3619.568806  	84.081082 
3621.005713  	83.972473 
3622.442620  	84.108467 
3623.879527  	84.332661 
3625.316434  	84.460467 
3626.753341  	84.747867 
3628.190248  	85.176626 
3629.627155  	85.480988 
3631.064062  	85.508638 
3632.500969  	85.538612 
3633.937876  	85.633216 
3635.374783  	85.821562 
3636.811690  	86.239907 
3638.248597  	86.592435 
3639.685504  	86.580217 
3641.122411  	86.729519 
3642.559318  	87.063551 
3643.996225  	87.214877 
3645.433132  	87.533108 
3646.870039  	87.913509 
3648.306946  	88.053800 
3649.743853  	88.592149 
3651.180760  	88.870747 
3652.617667  	88.679670 
3654.054574  	88.967212 
3655.491481  	89.432688 
3656.928389  	89.789162 
3658.365296  	90.054130 
3659.802203  	90.311954 
3661.239110  	90.486087 
3662.676017  	90.592454 
3664.112924  	90.865917 
3665.549831  	91.096540 
3666.986738  	91.254130 
3668.423645  	91.508455 
3669.860552  	91.825331 
3671.297459  	91.851399 
3672.734366  	92.023484 
3674.171273  	92.384774 
3675.608180  	92.570649 
3677.045087  	92.512321 
3678.481994  	92.819751 
3679.918901  	93.123648 
3681.355808  	93.269870 
3682.792715  	93.434279 
3684.229622  	93.581893 
3685.666529  	93.680002 
3687.103436  	93.878085 
3688.540343  	94.145755 
3689.977250  	94.032890 
3691.414157  	94.153328 
3692.851064  	94.279731 
3694.287971  	94.323586 
3695.724878  	94.425963 
3697.161785  	94.509011 
3698.598692  	94.642818 
3700.035599  	94.827066 
3701.472506  	94.890793 
3702.909413  	94.905058 
3704.346320  	95.032593 
3705.783227  	95.194128 
3707.220135  	95.344969 
3708.657042  	95.378543 
3710.093949  	95.460800 
3711.530856  	95.703337 
3712.967763  	95.781503 
3714.404670  	95.790195 
3715.841577  	95.906812 
3717.278484  	95.995511 
3718.715391  	96.063975 
3720.152298  	96.229985 
3721.589205  	96.374227 
3723.026112  	96.414235 
3724.463019  	96.330380 
3725.899926  	96.300510 
3727.336833  	96.183636 
3728.773740  	96.084491 
3730.210647  	96.407430 
3731.647554  	96.843620 
3733.084461  	96.841234 
3734.521368  	96.714924 
3735.958275  	96.525533 
3737.395182  	96.347432 
3738.832089  	96.676938 
3740.268996  	96.841541 
3741.705903  	96.783613 
3743.142810  	96.990430 
3744.579717  	97.114357 
3746.016624  	96.680173 
3747.453531  	96.948889 
3748.890438  	97.288210 
3750.327345  	97.133223 
3751.764252  	96.781781 
3753.201159  	96.556778 
3754.638066  	96.531976 
3756.074973  	96.707313 
3757.511881  	96.743432 
3758.948788  	96.626970 
3760.385695  	96.550877 
3761.822602  	96.444181 
3763.259509  	96.562115 
3764.696416  	96.722628 
3766.133323  	96.556758 
3767.570230  	96.625495 
3769.007137  	96.950423 
3770.444044  	96.767865 
3771.880951  	96.407954 
3773.317858  	96.500036 
3774.754765  	96.611233 
3776.191672  	96.655296 
3777.628579  	96.743063 
3779.065486  	96.800271 
3780.502393  	96.724654 
3781.939300  	96.758152 
3783.376207  	96.906841 
3784.813114  	96.908212 
3786.250021  	96.788453 
3787.686928  	96.834232 
3789.123835  	96.893656 
3790.560742  	96.881559 
3791.997649  	96.880526 
3793.434556  	96.869148 
3794.871463  	96.933617 
3796.308370  	97.018728 
3797.745277  	96.875584 
3799.182184  	96.859878 
3800.619091  	97.152991 
3802.055998  	97.166899 
3803.492905  	96.768682 
3804.929812  	96.886200 
3806.366720  	97.135315 
3807.803627  	96.996461 
3809.240534  	96.852771 
3810.677441  	97.005289 
3812.114348  	97.025396 
3813.551255  	97.018116 
3814.988162  	97.243536 
3816.425069  	97.246130 
3817.861976  	96.907101 
3819.298883  	97.072185 
3820.735790  	97.260603 
3822.172697  	96.887573 
3823.609604  	96.842375 
3825.046511  	97.082729 
3826.483418  	97.110729 
3827.920325  	96.943883 
3829.357232  	96.953116 
3830.794139  	97.092996 
3832.231046  	97.208906 
3833.667953  	97.253831 
3835.104860  	97.237823 
3836.541767  	97.181742 
3837.978674  	97.146001 
3839.415581  	97.149974 
3840.852488  	97.166930 
3842.289395  	97.205343 
3843.726302  	97.224925 
3845.163209  	97.130807 
3846.600116  	97.076587 
3848.037023  	97.143054 
3849.473930  	97.195753 
3850.910837  	97.318684 
3852.347744  	97.579649 
3853.784651  	97.376343 
3855.221558  	96.819340 
3856.658466  	96.950276 
3858.095373  	96.994737 
3859.532280  	97.006783 
3860.969187  	97.115445 
3862.406094  	97.142579 
3863.843001  	97.178048 
3865.279908  	97.182341 
3866.716815  	97.000348 
3868.153722  	97.067524 
3869.590629  	97.201915 
3871.027536  	97.022265 
3872.464443  	97.098819 
3873.901350  	97.264983 
3875.338257  	97.087738 
3876.775164  	96.963239 
3878.212071  	97.080531 
3879.648978  	97.182977 
3881.085885  	97.131822 
3882.522792  	97.037231 
3883.959699  	97.133671 
3885.396606  	97.214777 
3886.833513  	96.997869 
3888.270420  	96.985336 
3889.707327  	97.158821 
3891.144234  	97.191137 
3892.581141  	97.060161 
3894.018048  	97.017140 
3895.454955  	97.012282 
3896.891862  	97.081600 
3898.328769  	97.180042 
3899.765676  	97.151992 
3901.202583  	97.036495 
3902.639490  	97.070618 
3904.076397  	97.103297 
3905.513305  	96.939613 
3906.950212  	96.862146 
3908.387119  	96.936122 
3909.824026  	97.029062 
3911.260933  	97.119316 
3912.697840  	97.052146 
3914.134747  	97.010347 
3915.571654  	97.071786 
3917.008561  	96.977008 
3918.445468  	96.854630 
3919.882375  	96.916285 
3921.319282  	96.942787 
3922.756189  	96.980996 
3924.193096  	97.013439 
3925.630003  	96.900710 
3927.066910  	96.934393 
3928.503817  	97.110711 
3929.940724  	97.123903 
3931.377631  	97.008476 
3932.814538  	96.951037 
3934.251445  	96.943798 
3935.688352  	97.002077 
3937.125259  	97.077618 
3938.562166  	97.042815 
3939.999073  	96.997089 
3941.435980  	97.051871 
3942.872887  	97.023442 
3944.309794  	96.880136 
3945.746701  	96.909029 
3947.183608  	97.011489 
3948.620515  	96.985354 
3950.057422  	96.895336 
3951.494329  	96.861837 
3952.931236  	96.899363 
3954.368143  	96.944173 
3955.805051  	96.936787 
3957.241958  	96.937416 
3958.678865  	96.949864 
3960.115772  	97.004871 
3961.552679  	97.068236 
3962.989586  	97.037657 
3964.426493  	96.990887 
3965.863400  	97.006898 
3967.300307  	96.986047 
3968.737214  	96.965560 
3970.174121  	96.979421 
3971.611028  	96.977001 
3973.047935  	97.008501 
3974.484842  	97.032081 
3975.921749  	96.986545 
3977.358656  	96.954295 
3978.795563  	96.974730 
3980.232470  	97.013231 
3981.669377  	97.002186 
3983.106284  	96.957701 
3984.543191  	96.966569 
3985.980098  	96.978361 
3987.417005  	96.993761 
3988.853912  	97.048885 
3990.290819  	97.043536 
3991.727726  	97.012149 
3993.164633  	97.015119 
3994.601540  	96.978671 
3996.038447  	96.961280 
3997.475354  	96.995724 
3998.912261  	97.010008 
4000.349168  	97.021762 