##TITLE=No Description
##DATA TYPE=INFRARED SPECTRUM
##XUNITS=1/CM
##YUNITS=%T
399.460154  	66.847195 
400.897061  	65.032744 
402.333968  	64.015068 
403.770875  	63.878421 
405.207782  	63.385236 
406.644689  	63.615137 
408.081596  	63.545389 
409.518503  	63.440992 
410.955410  	63.632795 
412.392317  	63.361083 
413.829224  	63.709092 
415.266131  	63.576161 
416.703038  	62.480028 
418.139945  	62.299897 
419.576852  	63.499665 
421.013759  	64.404114 
422.450666  	64.920591 
423.887574  	64.465323 
425.324481  	63.972516 
426.761388  	63.335236 
428.198295  	62.708202 
429.635202  	63.279700 
431.072109  	63.546446 
432.509016  	63.231576 
433.945923  	63.239813 
435.382830  	62.988560 
436.819737  	63.141639 
438.256644  	63.249835 
439.693551  	62.732838 
441.130458  	62.679214 
442.567365  	62.638537 
444.004272  	62.770768 
445.441179  	63.214025 
446.878086  	62.728351 
448.314993  	62.510072 
449.751900  	63.020921 
451.188807  	63.216316 
452.625714  	63.341787 
454.062621  	62.840481 
455.499528  	62.315350 
456.936435  	62.870591 
458.373342  	63.311659 
459.810249  	62.950868 
461.247156  	62.616110 
462.684063  	62.351714 
464.120970  	62.449027 
465.557877  	62.422508 
466.994784  	62.681846 
468.431691  	63.222196 
469.868598  	62.670328 
471.305505  	62.267135 
472.742413  	62.774827 
474.179320  	62.460600 
475.616227  	62.067836 
477.053134  	62.228379 
478.490041  	62.365850 
479.926948  	62.556714 
481.363855  	62.664796 
482.800762  	62.440896 
484.237669  	62.250520 
485.674576  	62.324644 
487.111483  	62.421285 
488.548390  	62.380755 
489.985297  	62.506241 
491.422204  	62.517619 
492.859111  	62.077346 
494.296018  	62.073420 
495.732925  	62.422873 
497.169832  	62.466211 
498.606739  	62.464600 
500.043646  	62.400230 
501.480553  	62.360780 
502.917460  	62.621510 
504.354367  	62.567280 
505.791274  	62.467084 
507.228181  	62.554693 
508.665088  	62.384407 
510.101995  	62.377572 
511.538902  	62.536594 
512.975809  	62.381235 
514.412716  	62.351843 
515.849623  	62.576916 
517.286530  	62.727649 
518.723437  	62.797955 
520.160344  	62.701555 
521.597251  	62.519549 
523.034159  	62.413369 
524.471066  	62.419723 
525.907973  	62.643452 
527.344880  	62.812817 
528.781787  	62.681479 
530.218694  	62.503911 
531.655601  	62.484558 
533.092508  	62.594276 
534.529415  	62.727069 
535.966322  	62.837190 
537.403229  	62.811757 
538.840136  	62.600499 
540.277043  	62.531533 
541.713950  	62.706282 
543.150857  	62.825973 
544.587764  	62.830504 
546.024671  	62.763674 
547.461578  	62.715797 
548.898485  	62.789972 
550.335392  	62.836594 
551.772299  	62.877300 
553.209206  	63.011155 
554.646113  	63.084235 
556.083020  	63.072082 
557.519927  	63.123937 
558.956834  	63.225792 
560.393741  	63.233652 
561.830648  	63.140058 
563.267555  	63.119386 
564.704462  	63.185500 
566.141369  	63.281906 
567.578276  	63.387319 
569.015183  	63.358956 
570.452090  	63.316854 
571.888997  	63.380610 
573.325905  	63.355604 
574.762812  	63.406694 
576.199719  	63.661152 
577.636626  	63.699466 
579.073533  	63.567239 
580.510440  	63.568026 
581.947347  	63.575889 
583.384254  	63.535375 
584.821161  	63.629622 
586.258068  	63.812452 
587.694975  	63.833327 
589.131882  	63.736317 
590.568789  	63.806665 
592.005696  	64.028462 
593.442603  	64.144517 
594.879510  	64.162344 
596.316417  	64.241576 
597.753324  	64.382106 
599.190231  	64.418907 
600.627138  	64.362670 
602.064045  	64.407315 
603.500952  	64.477000 
604.937859  	64.479535 
606.374766  	64.515390 
607.811673  	64.615097 
609.248580  	64.710506 
610.685487  	64.788742 
612.122394  	64.847588 
613.559301  	64.910318 
614.996208  	64.954471 
616.433115  	64.991589 
617.870022  	65.076895 
619.306929  	65.152700 
620.743836  	65.211452 
622.180744  	65.273919 
623.617651  	65.332175 
625.054558  	65.421699 
626.491465  	65.532936 
627.928372  	65.590587 
629.365279  	65.651470 
630.802186  	65.703680 
632.239093  	65.723488 
633.676000  	65.783483 
635.112907  	65.878957 
636.549814  	66.009287 
637.986721  	66.148856 
639.423628  	66.218093 
640.860535  	66.285243 
642.297442  	66.347824 
643.734349  	66.368796 
645.171256  	66.429044 
646.608163  	66.517456 
648.045070  	66.599533 
649.481977  	66.697403 
650.918884  	66.742076 
652.355791  	66.808908 
653.792698  	66.978836 
655.229605  	67.119298 
656.666512  	67.213208 
658.103419  	67.297293 
659.540326  	67.386824 
660.977233  	67.488393 
662.414140  	67.604112 
663.851047  	67.709227 
665.287954  	67.659326 
666.724861  	67.640235 
668.161768  	67.883245 
669.598675  	68.167777 
671.035582  	68.173479 
672.472490  	68.221406 
673.909397  	68.364334 
675.346304  	68.485124 
676.783211  	68.541247 
678.220118  	68.628751 
679.657025  	68.735893 
681.093932  	68.842805 
682.530839  	68.928872 
683.967746  	68.994159 
685.404653  	69.085705 
686.841560  	69.196392 
688.278467  	69.320670 
689.715374  	69.450681 
691.152281  	69.570890 
692.589188  	69.677012 
694.026095  	69.781010 
695.463002  	69.879447 
696.899909  	69.974401 
698.336816  	70.100382 
699.773723  	70.232170 
701.210630  	70.310916 
702.647537  	70.389276 
704.084444  	70.523919 
705.521351  	70.628959 
706.958258  	70.726018 
708.395165  	70.844960 
709.832072  	70.969197 
711.268979  	71.108005 
712.705886  	71.207645 
714.142793  	71.304512 
715.579700  	71.481004 
717.016607  	71.596875 
718.453514  	71.640148 
719.890421  	71.744015 
721.327328  	71.904421 
722.764236  	72.024138 
724.201143  	72.148580 
725.638050  	72.307976 
727.074957  	72.427940 
728.511864  	72.514040 
729.948771  	72.628437 
731.385678  	72.769906 
732.822585  	72.906385 
734.259492  	73.019097 
735.696399  	73.109524 
737.133306  	73.245011 
738.570213  	73.400703 
740.007120  	73.477834 
741.444027  	73.581335 
742.880934  	73.792418 
744.317841  	73.963237 
745.754748  	74.035941 
747.191655  	74.122997 
748.628562  	74.254101 
750.065469  	74.379386 
751.502376  	74.523242 
752.939283  	74.702780 
754.376190  	74.834248 
755.813097  	74.924222 
757.250004  	75.058516 
758.686911  	75.165452 
760.123818  	75.214323 
761.560725  	75.345199 
762.997632  	75.553079 
764.434539  	75.728401 
765.871446  	75.879106 
767.308353  	76.016971 
768.745260  	76.152417 
770.182167  	76.308013 
771.619075  	76.409863 
773.055982  	76.478286 
774.492889  	76.650907 
775.929796  	76.840392 
777.366703  	76.927230 
778.803610  	77.048835 
780.240517  	77.228103 
781.677424  	77.339272 
783.114331  	77.441119 
784.551238  	77.596763 
785.988145  	77.768592 
787.425052  	77.936415 
788.861959  	78.068576 
790.298866  	78.216074 
791.735773  	78.385025 
793.172680  	78.455519 
794.609587  	78.533466 
796.046494  	78.725256 
797.483401  	78.878435 
798.920308  	79.004777 
800.357215  	79.192915 
801.794122  	79.354354 
803.231029  	79.476594 
804.667936  	79.617343 
806.104843  	79.789398 
807.541750  	79.966092 
808.978657  	80.082900 
810.415564  	80.177554 
811.852471  	80.311920 
813.289378  	80.456760 
814.726285  	80.593429 
816.163192  	80.727569 
817.600099  	80.903728 
819.037006  	81.106491 
820.473913  	81.249927 
821.910821  	81.388290 
823.347728  	81.533835 
824.784635  	81.639708 
826.221542  	81.801747 
827.658449  	81.969186 
829.095356  	82.062204 
830.532263  	82.195230 
831.969170  	82.344901 
833.406077  	82.479358 
834.842984  	82.646153 
836.279891  	82.777937 
837.716798  	82.917606 
839.153705  	83.095686 
840.590612  	83.220882 
842.027519  	83.359612 
843.464426  	83.532608 
844.901333  	83.662082 
846.338240  	83.779418 
847.775147  	83.916575 
849.212054  	84.095851 
850.648961  	84.268957 
852.085868  	84.369655 
853.522775  	84.497454 
854.959682  	84.652066 
856.396589  	84.756529 
857.833496  	84.877555 
859.270403  	85.018636 
860.707310  	85.163691 
862.144217  	85.340790 
863.581124  	85.491002 
865.018031  	85.592051 
866.454938  	85.694800 
867.891845  	85.855109 
869.328752  	86.045343 
870.765660  	86.163827 
872.202567  	86.252557 
873.639474  	86.358892 
875.076381  	86.463483 
876.513288  	86.632715 
877.950195  	86.808087 
879.387102  	86.920112 
880.824009  	87.034957 
882.260916  	87.116102 
883.697823  	87.204292 
885.134730  	87.361082 
886.571637  	87.482805 
888.008544  	87.596040 
889.445451  	87.728001 
890.882358  	87.837161 
892.319265  	87.978269 
893.756172  	88.086233 
895.193079  	88.151204 
896.629986  	88.283076 
898.066893  	88.414091 
899.503800  	88.507514 
900.940707  	88.587396 
902.377614  	88.648826 
903.814521  	88.751960 
905.251428  	88.854538 
906.688335  	88.942114 
908.125242  	89.071570 
909.562149  	89.156017 
910.999056  	89.216242 
912.435963  	89.331614 
913.872870  	89.448138 
915.309777  	89.550837 
916.746684  	89.619481 
918.183591  	89.698160 
919.620498  	89.826566 
921.057406  	89.889486 
922.494313  	89.954040 
923.931220  	90.076607 
925.368127  	90.134705 
926.805034  	90.202732 
928.241941  	90.278224 
929.678848  	90.296549 
931.115755  	90.399636 
932.552662  	90.529958 
933.989569  	90.599340 
935.426476  	90.691771 
936.863383  	90.758115 
938.300290  	90.812159 
939.737197  	90.895454 
941.174104  	90.941454 
942.611011  	90.989326 
944.047918  	91.040357 
945.484825  	91.094512 
946.921732  	91.200175 
948.358639  	91.267475 
949.795546  	91.303658 
951.232453  	91.356243 
952.669360  	91.371479 
954.106267  	91.424164 
955.543174  	91.512112 
956.980081  	91.544293 
958.416988  	91.579311 
959.853895  	91.632823 
961.290802  	91.693693 
962.727709  	91.769766 
964.164616  	91.824305 
965.601523  	91.881735 
967.038430  	91.913902 
968.475337  	91.908969 
969.912244  	91.955778 
971.349152  	92.010403 
972.786059  	92.049093 
974.222966  	92.114065 
975.659873  	92.145059 
977.096780  	92.170162 
978.533687  	92.222040 
979.970594  	92.259116 
981.407501  	92.323898 
982.844408  	92.376492 
984.281315  	92.367476 
985.718222  	92.389528 
987.155129  	92.445408 
988.592036  	92.470338 
990.028943  	92.471216 
991.465850  	92.489471 
992.902757  	92.558038 
994.339664  	92.634172 
995.776571  	92.670433 
997.213478  	92.682358 
998.650385  	92.688247 
1000.087292  	92.698652 
1001.524199  	92.703982 
1002.961106  	92.724344 
1004.398013  	92.766729 
1005.834920  	92.765125 
1007.271827  	92.758894 
1008.708734  	92.799046 
1010.145641  	92.816408 
1011.582548  	92.840054 
1013.019455  	92.906924 
1014.456362  	92.942937 
1015.893269  	92.942267 
1017.330176  	92.944810 
1018.767083  	92.971034 
1020.203991  	93.009879 
1021.640898  	93.032564 
1023.077805  	93.066235 
1024.514712  	93.099194 
1025.951619  	93.101190 
1027.388526  	93.101027 
1028.825433  	93.091010 
1030.262340  	93.086415 
1031.699247  	93.104871 
1033.136154  	93.110344 
1034.573061  	93.113871 
1036.009968  	93.088100 
1037.446875  	93.040048 
1038.883782  	93.072884 
1040.320689  	93.143918 
1041.757596  	93.192662 
1043.194503  	93.229893 
1044.631410  	93.210190 
1046.068317  	93.203462 
1047.505224  	93.265755 
1048.942131  	93.312485 
1050.379038  	93.343027 
1051.815945  	93.357040 
1053.252852  	93.355157 
1054.689759  	93.389597 
1056.126666  	93.417371 
1057.563573  	93.433783 
1059.000480  	93.455953 
1060.437387  	93.444697 
1061.874294  	93.447167 
1063.311201  	93.460674 
1064.748108  	93.461200 
1066.185015  	93.497620 
1067.621922  	93.517672 
1069.058829  	93.512278 
1070.495737  	93.531379 
1071.932644  	93.535534 
1073.369551  	93.540069 
1074.806458  	93.549350 
1076.243365  	93.541825 
1077.680272  	93.552176 
1079.117179  	93.557510 
1080.554086  	93.576984 
1081.990993  	93.610009 
1083.427900  	93.577470 
1084.864807  	93.553918 
1086.301714  	93.555075 
1087.738621  	93.499219 
1089.175528  	93.470819 
1090.612435  	93.498813 
1092.049342  	93.527237 
1093.486249  	93.542977 
1094.923156  	93.517828 
1096.360063  	93.517688 
1097.796970  	93.552479 
1099.233877  	93.527877 
1100.670784  	93.505082 
1102.107691  	93.516266 
1103.544598  	93.509249 
1104.981505  	93.528419 
1106.418412  	93.568707 
1107.855319  	93.577033 
1109.292226  	93.556019 
1110.729133  	93.542241 
1112.166040  	93.571725 
1113.602947  	93.600849 
1115.039854  	93.613905 
1116.476761  	93.644526 
1117.913668  	93.654804 
1119.350575  	93.654194 
1120.787483  	93.661401 
1122.224390  	93.650677 
1123.661297  	93.651506 
1125.098204  	93.642415 
1126.535111  	93.628936 
1127.972018  	93.669149 
1129.408925  	93.687600 
1130.845832  	93.674778 
1132.282739  	93.693031 
1133.719646  	93.698090 
1135.156553  	93.707848 
1136.593460  	93.725757 
1138.030367  	93.704068 
1139.467274  	93.704070 
1140.904181  	93.720599 
1142.341088  	93.711128 
1143.777995  	93.724594 
1145.214902  	93.741746 
1146.651809  	93.732317 
1148.088716  	93.724573 
1149.525623  	93.719642 
1150.962530  	93.707454 
1152.399437  	93.680763 
1153.836344  	93.665595 
1155.273251  	93.670894 
1156.710158  	93.658307 
1158.147065  	93.653711 
1159.583972  	93.663617 
1161.020879  	93.659423 
1162.457786  	93.670143 
1163.894693  	93.663045 
1165.331600  	93.627997 
1166.768507  	93.638105 
1168.205414  	93.662386 
1169.642322  	93.661527 
1171.079229  	93.654067 
1172.516136  	93.634558 
1173.953043  	93.635995 
1175.389950  	93.659258 
1176.826857  	93.662738 
1178.263764  	93.659503 
1179.700671  	93.647929 
1181.137578  	93.637454 
1182.574485  	93.644791 
1184.011392  	93.639388 
1185.448299  	93.640080 
1186.885206  	93.653660 
1188.322113  	93.639334 
1189.759020  	93.625938 
1191.195927  	93.634835 
1192.632834  	93.636426 
1194.069741  	93.618088 
1195.506648  	93.596946 
1196.943555  	93.609380 
1198.380462  	93.624789 
1199.817369  	93.603245 
1201.254276  	93.595884 
1202.691183  	93.599251 
1204.128090  	93.577050 
1205.564997  	93.570138 
1207.001904  	93.579797 
1208.438811  	93.579969 
1209.875718  	93.581489 
1211.312625  	93.576711 
1212.749532  	93.569490 
1214.186439  	93.574177 
1215.623346  	93.577668 
1217.060253  	93.576948 
1218.497160  	93.578772 
1219.934068  	93.586147 
1221.370975  	93.596092 
1222.807882  	93.596860 
1224.244789  	93.594176 
1225.681696  	93.598818 
1227.118603  	93.600341 
1228.555510  	93.593136 
1229.992417  	93.591305 
1231.429324  	93.594920 
1232.866231  	93.589833 
1234.303138  	93.586200 
1235.740045  	93.585969 
1237.176952  	93.575048 
1238.613859  	93.569587 
1240.050766  	93.571206 
1241.487673  	93.570426 
1242.924580  	93.581611 
1244.361487  	93.588264 
1245.798394  	93.582440 
1247.235301  	93.583273 
1248.672208  	93.580459 
1250.109115  	93.581596 
1251.546022  	93.584222 
1252.982929  	93.567325 
1254.419836  	93.565201 
1255.856743  	93.572416 
1257.293650  	93.547944 
1258.730557  	93.520258 
1260.167464  	93.513374 
1261.604371  	93.522925 
1263.041278  	93.532423 
1264.478185  	93.523441 
1265.915092  	93.526686 
1267.351999  	93.539545 
1268.788907  	93.523551 
1270.225814  	93.503467 
1271.662721  	93.495518 
1273.099628  	93.486013 
1274.536535  	93.474101 
1275.973442  	93.465181 
1277.410349  	93.473847 
1278.847256  	93.474098 
1280.284163  	93.452319 
1281.721070  	93.448063 
1283.157977  	93.449569 
1284.594884  	93.454134 
1286.031791  	93.479409 
1287.468698  	93.491256 
1288.905605  	93.502225 
1290.342512  	93.513292 
1291.779419  	93.492420 
1293.216326  	93.493407 
1294.653233  	93.519887 
1296.090140  	93.526157 
1297.527047  	93.533247 
1298.963954  	93.540013 
1300.400861  	93.552272 
1301.837768  	93.539825 
1303.274675  	93.552575 
1304.711582  	93.549745 
1306.148489  	93.563473 
1307.585396  	93.567225 
1309.022303  	93.583549 
1310.459210  	93.594694 
1311.896117  	93.585782 
1313.333024  	93.587408 
1314.769931  	93.580593 
1316.206838  	93.551178 
1317.643745  	93.538240 
1319.080653  	93.540202 
1320.517560  	93.561729 
1321.954467  	93.571724 
1323.391374  	93.563120 
1324.828281  	93.583312 
1326.265188  	93.590065 
1327.702095  	93.565526 
1329.139002  	93.551716 
1330.575909  	93.544948 
1332.012816  	93.541289 
1333.449723  	93.537327 
1334.886630  	93.535004 
1336.323537  	93.533412 
1337.760444  	93.495035 
1339.197351  	93.433936 
1340.634258  	93.435509 
1342.071165  	93.475427 
1343.508072  	93.502979 
1344.944979  	93.517886 
1346.381886  	93.523114 
1347.818793  	93.511113 
1349.255700  	93.471165 
1350.692607  	93.442769 
1352.129514  	93.442333 
1353.566421  	93.416304 
1355.003328  	93.393797 
1356.440235  	93.396253 
1357.877142  	93.387699 
1359.314049  	93.371648 
1360.750956  	93.337072 
1362.187863  	93.299301 
1363.624770  	93.284773 
1365.061677  	93.273889 
1366.498584  	93.226200 
1367.935491  	93.208022 
1369.372399  	93.236992 
1370.809306  	93.233455 
1372.246213  	93.161788 
1373.683120  	93.115233 
1375.120027  	93.119933 
1376.556934  	93.105380 
1377.993841  	93.066050 
1379.430748  	93.033592 
1380.867655  	93.047719 
1382.304562  	93.077502 
1383.741469  	93.088657 
1385.178376  	93.087205 
1386.615283  	93.058523 
1388.052190  	93.052901 
1389.489097  	93.116515 
1390.926004  	93.146608 
1392.362911  	93.114241 
1393.799818  	93.149821 
1395.236725  	93.232973 
1396.673632  	93.206173 
1398.110539  	93.185794 
1399.547446  	93.225414 
1400.984353  	93.291802 
1402.421260  	93.324000 
1403.858167  	93.312831 
1405.295074  	93.367073 
1406.731981  	93.419342 
1408.168888  	93.361969 
1409.605795  	93.333698 
1411.042702  	93.348116 
1412.479609  	93.355843 
1413.916516  	93.427010 
1415.353423  	93.449095 
1416.790330  	93.348919 
1418.227238  	93.299231 
1419.664145  	93.398934 
1421.101052  	93.465429 
1422.537959  	93.451834 
1423.974866  	93.434110 
1425.411773  	93.517369 
1426.848680  	93.551765 
1428.285587  	93.407087 
1429.722494  	93.344970 
1431.159401  	93.507316 
1432.596308  	93.544534 
1434.033215  	93.417303 
1435.470122  	93.309787 
1436.907029  	93.343703 
1438.343936  	93.467191 
1439.780843  	93.445238 
1441.217750  	93.367648 
1442.654657  	93.421078 
1444.091564  	93.494198 
1445.528471  	93.437305 
1446.965378  	93.395810 
1448.402285  	93.403711 
1449.839192  	93.361167 
1451.276099  	93.340997 
1452.713006  	93.394084 
1454.149913  	93.416577 
1455.586820  	93.369509 
1457.023727  	93.283454 
1458.460634  	93.380093 
1459.897541  	93.395799 
1461.334448  	93.299813 
1462.771355  	93.263393 
1464.208262  	93.305721 
1465.645169  	93.330265 
1467.082076  	93.356646 
1468.518984  	93.313476 
1469.955891  	93.217458 
1471.392798  	93.228700 
1472.829705  	93.314783 
1474.266612  	93.279401 
1475.703519  	93.258331 
1477.140426  	93.213482 
1478.577333  	93.202624 
1480.014240  	93.212538 
1481.451147  	93.169487 
1482.888054  	93.181338 
1484.324961  	93.202677 
1485.761868  	93.143556 
1487.198775  	93.077652 
1488.635682  	93.018075 
1490.072589  	92.992034 
1491.509496  	93.064922 
1492.946403  	93.068228 
1494.383310  	93.016325 
1495.820217  	92.982851 
1497.257124  	92.955163 
1498.694031  	92.885236 
1500.130938  	92.822399 
1501.567845  	92.859459 
1503.004752  	92.885197 
1504.441659  	92.772434 
1505.878566  	92.680904 
1507.315473  	92.857268 
1508.752380  	92.726971 
1510.189287  	92.606382 
1511.626194  	92.630179 
1513.063101  	92.660675 
1514.500008  	92.607092 
1515.936915  	92.533287 
1517.373822  	92.578241 
1518.810730  	92.539219 
1520.247637  	92.360980 
1521.684544  	92.211940 
1523.121451  	92.352894 
1524.558358  	92.339519 
1525.995265  	92.220483 
1527.432172  	92.239395 
1528.869079  	92.316984 
1530.305986  	92.201171 
1531.742893  	91.957087 
1533.179800  	91.917163 
1534.616707  	92.066764 
1536.053614  	91.988198 
1537.490521  	91.793314 
1538.927428  	91.570519 
1540.364335  	91.792943 
1541.801242  	91.778858 
1543.238149  	91.468952 
1544.675056  	91.485268 
1546.111963  	91.521234 
1547.548870  	91.362365 
1548.985777  	91.249596 
1550.422684  	91.179192 
1551.859591  	91.118588 
1553.296498  	91.046848 
1554.733405  	90.989061 
1556.170312  	90.928489 
1557.607219  	90.707101 
1559.044126  	90.290521 
1560.481033  	90.777058 
1561.917940  	90.697634 
1563.354847  	90.494835 
1564.791754  	90.502241 
1566.228661  	90.606404 
1567.665569  	90.391937 
1569.102476  	90.095563 
1570.539383  	90.199452 
1571.976290  	90.334968 
1573.413197  	90.089325 
1574.850104  	89.781451 
1576.287011  	89.929166 
1577.723918  	90.073282 
1579.160825  	89.839292 
1580.597732  	89.643187 
1582.034639  	89.565517 
1583.471546  	89.586612 
1584.908453  	89.477532 
1586.345360  	89.288015 
1587.782267  	89.183475 
1589.219174  	89.041630 
1590.656081  	88.865884 
1592.092988  	88.710351 
1593.529895  	88.560879 
1594.966802  	88.429853 
1596.403709  	88.271835 
1597.840616  	88.073718 
1599.277523  	87.902683 
1600.714430  	87.626367 
1602.151337  	87.377640 
1603.588244  	87.199493 
1605.025151  	86.916072 
1606.462058  	86.597978 
1607.898965  	86.289305 
1609.335872  	86.008153 
1610.772779  	85.802721 
1612.209686  	85.545732 
1613.646593  	85.193328 
1615.083500  	84.784910 
1616.520407  	84.441220 
1617.957315  	84.444813 
1619.394222  	84.194811 
1620.831129  	83.643653 
1622.268036  	83.304141 
1623.704943  	83.300990 
1625.141850  	83.096234 
1626.578757  	82.716750 
1628.015664  	82.363462 
1629.452571  	82.357958 
1630.889478  	82.372053 
1632.326385  	82.100811 
1633.763292  	81.816397 
1635.200199  	81.746008 
1636.637106  	82.154195 
1638.074013  	82.204859 
1639.510920  	81.891993 
1640.947827  	81.886060 
1642.384734  	82.188675 
1643.821641  	82.143146 
1645.258548  	81.900739 
1646.695455  	82.111463 
1648.132362  	82.916088 
1649.569269  	83.030634 
1651.006176  	82.660168 
1652.443083  	82.394054 
1653.879990  	84.188948 
1655.316897  	84.166539 
1656.753804  	83.914300 
1658.190711  	84.122387 
1659.627618  	84.364809 
1661.064525  	84.526974 
1662.501432  	84.757977 
1663.938339  	85.187451 
1665.375246  	85.549026 
1666.812154  	85.466772 
1668.249061  	85.474475 
1669.685968  	86.192963 
1671.122875  	86.723097 
1672.559782  	86.691263 
1673.996689  	86.761393 
1675.433596  	87.164084 
1676.870503  	87.621774 
1678.307410  	87.696230 
1679.744317  	87.911044 
1681.181224  	88.273935 
1682.618131  	88.431368 
1684.055038  	88.650183 
1685.491945  	89.343447 
1686.928852  	89.411587 
1688.365759  	89.431513 
1689.802666  	89.755515 
1691.239573  	90.230637 
1692.676480  	90.433513 
1694.113387  	90.396270 
1695.550294  	90.612210 
1696.987201  	91.101736 
1698.424108  	91.063922 
1699.861015  	91.090843 
1701.297922  	91.646788 
1702.734829  	91.791095 
1704.171736  	91.849578 
1705.608643  	91.969259 
1707.045550  	92.252194 
1708.482457  	92.479987 
1709.919364  	92.522399 
1711.356271  	92.661439 
1712.793178  	92.943377 
1714.230085  	93.067955 
1715.666992  	93.118902 
1717.103900  	93.276874 
1718.540807  	93.509369 
1719.977714  	93.702072 
1721.414621  	93.763117 
1722.851528  	93.845246 
1724.288435  	94.074965 
1725.725342  	94.214903 
1727.162249  	94.232605 
1728.599156  	94.316676 
1730.036063  	94.471846 
1731.472970  	94.521037 
1732.909877  	94.477001 
1734.346784  	94.578388 
1735.783691  	94.800755 
1737.220598  	94.813161 
1738.657505  	94.820460 
1740.094412  	94.922975 
1741.531319  	95.078123 
1742.968226  	95.114810 
1744.405133  	95.085461 
1745.842040  	95.218339 
1747.278947  	95.345134 
1748.715854  	95.289446 
1750.152761  	95.355137 
1751.589668  	95.522022 
1753.026575  	95.569183 
1754.463482  	95.611337 
1755.900389  	95.639403 
1757.337296  	95.714940 
1758.774203  	95.803374 
1760.211110  	95.731970 
1761.648017  	95.700603 
1763.084924  	95.829006 
1764.521831  	95.828775 
1765.958738  	95.814813 
1767.395646  	95.884370 
1768.832553  	95.968449 
1770.269460  	96.018290 
1771.706367  	96.008775 
1773.143274  	96.020558 
1774.580181  	96.146721 
1776.017088  	96.141338 
1777.453995  	96.120278 
1778.890902  	96.219444 
1780.327809  	96.261857 
1781.764716  	96.228918 
1783.201623  	96.246215 
1784.638530  	96.265866 
1786.075437  	96.314269 
1787.512344  	96.396724 
1788.949251  	96.393560 
1790.386158  	96.354717 
1791.823065  	96.407874 
1793.259972  	96.454637 
1794.696879  	96.429898 
1796.133786  	96.451245 
1797.570693  	96.489821 
1799.007600  	96.497150 
1800.444507  	96.530427 
1801.881414  	96.535721 
1803.318321  	96.523139 
1804.755228  	96.549836 
1806.192135  	96.587661 
1807.629042  	96.623624 
1809.065949  	96.652930 
1810.502856  	96.641290 
1811.939763  	96.667626 
1813.376670  	96.695556 
1814.813577  	96.715818 
1816.250485  	96.745802 
1817.687392  	96.732728 
1819.124299  	96.725448 
1820.561206  	96.749238 
1821.998113  	96.715956 
1823.435020  	96.729624 
1824.871927  	96.805176 
1826.308834  	96.794919 
1827.745741  	96.802618 
1829.182648  	96.801374 
1830.619555  	96.775984 
1832.056462  	96.840054 
1833.493369  	96.821577 
1834.930276  	96.754650 
1836.367183  	96.827879 
1837.804090  	96.895314 
1839.240997  	96.898039 
1840.677904  	96.894377 
1842.114811  	96.905495 
1843.551718  	96.957632 
1844.988625  	96.964273 
1846.425532  	96.967678 
1847.862439  	96.967325 
1849.299346  	96.896661 
1850.736253  	96.964883 
1852.173160  	97.066503 
1853.610067  	96.994229 
1855.046974  	96.977077 
1856.483881  	97.004775 
1857.920788  	96.967164 
1859.357695  	97.004130 
1860.794602  	97.007113 
1862.231509  	96.955182 
1863.668416  	97.008292 
1865.105323  	97.095050 
1866.542231  	97.095401 
1867.979138  	97.025266 
1869.416045  	97.068021 
1870.852952  	97.120247 
1872.289859  	97.002714 
1873.726766  	96.979871 
1875.163673  	97.110871 
1876.600580  	97.151488 
1878.037487  	97.114410 
1879.474394  	97.053612 
1880.911301  	97.020131 
1882.348208  	97.051057 
1883.785115  	97.039152 
1885.222022  	97.058861 
1886.658929  	97.123946 
1888.095836  	97.110033 
1889.532743  	97.109704 
1890.969650  	97.168232 
1892.406557  	97.197027 
1893.843464  	97.142699 
1895.280371  	97.125753 
1896.717278  	97.192010 
1898.154185  	97.183124 
1899.591092  	97.122121 
1901.027999  	97.171686 
1902.464906  	97.189962 
1903.901813  	97.168587 
1905.338720  	97.207042 
1906.775627  	97.206391 
1908.212534  	97.216029 
1909.649441  	97.173413 
1911.086348  	97.114963 
1912.523255  	97.257511 
1913.960162  	97.294585 
1915.397069  	97.120117 
1916.833977  	97.167620 
1918.270884  	97.197957 
1919.707791  	97.157736 
1921.144698  	97.196781 
1922.581605  	97.210255 
1924.018512  	97.313837 
1925.455419  	97.430377 
1926.892326  	97.272357 
1928.329233  	97.210059 
1929.766140  	97.290943 
1931.203047  	97.230619 
1932.639954  	97.195155 
1934.076861  	97.159362 
1935.513768  	97.129686 
1936.950675  	97.216407 
1938.387582  	97.258378 
1939.824489  	97.271606 
1941.261396  	97.264764 
1942.698303  	97.264652 
1944.135210  	97.317514 
1945.572117  	97.341225 
1947.009024  	97.278840 
1948.445931  	97.217596 
1949.882838  	97.209299 
1951.319745  	97.250135 
1952.756652  	97.252034 
1954.193559  	97.263207 
1955.630466  	97.335924 
1957.067373  	97.354067 
1958.504280  	97.291716 
1959.941187  	97.222940 
1961.378094  	97.258065 
1962.815001  	97.466887 
1964.251908  	97.469699 
1965.688816  	97.325927 
1967.125723  	97.289676 
1968.562630  	97.242637 
1969.999537  	97.352635 
1971.436444  	97.633527 
1972.873351  	97.626085 
1974.310258  	97.535099 
1975.747165  	97.250907 
1977.184072  	97.002490 
1978.620979  	97.137875 
1980.057886  	96.955526 
1981.494793  	96.670901 
1982.931700  	96.880781 
1984.368607  	97.061069 
1985.805514  	96.973138 
1987.242421  	96.913035 
1988.679328  	96.939246 
1990.116235  	96.893088 
1991.553142  	96.718387 
1992.990049  	96.728375 
1994.426956  	96.833584 
1995.863863  	96.772927 
1997.300770  	96.892455 
1998.737677  	97.079363 
2000.174584  	97.000065 
2001.611491  	96.909751 
2003.048398  	96.849886 
2004.485305  	96.933802 
2005.922212  	97.046206 
2007.359119  	96.821721 
2008.796026  	96.728847 
2010.232933  	96.850380 
2011.669840  	96.887781 
2013.106747  	97.037205 
2014.543654  	96.983486 
2015.980562  	96.701678 
2017.417469  	96.539958 
2018.854376  	96.369193 
2020.291283  	96.238535 
2021.728190  	96.271857 
2023.165097  	96.424780 
2024.602004  	96.656325 
2026.038911  	96.600270 
2027.475818  	96.459682 
2028.912725  	96.489276 
2030.349632  	96.418497 
2031.786539  	96.468371 
2033.223446  	96.530323 
2034.660353  	96.327049 
2036.097260  	96.253771 
2037.534167  	96.220818 
2038.971074  	96.226323 
2040.407981  	96.390812 
2041.844888  	96.364074 
2043.281795  	96.341629 
2044.718702  	96.239097 
2046.155609  	95.894832 
2047.592516  	95.931755 
2049.029423  	96.062183 
2050.466330  	95.877375 
2051.903237  	95.907158 
2053.340144  	95.966174 
2054.777051  	95.859038 
2056.213958  	95.846986 
2057.650865  	95.803496 
2059.087772  	95.774777 
2060.524679  	95.872029 
2061.961586  	95.940876 
2063.398493  	96.018611 
2064.835401  	95.991459 
2066.272308  	95.825416 
2067.709215  	95.724782 
2069.146122  	95.708963 
2070.583029  	95.811344 
2072.019936  	95.899341 
2073.456843  	95.838107 
2074.893750  	95.868705 
2076.330657  	95.905695 
2077.767564  	95.816572 
2079.204471  	95.791928 
2080.641378  	95.757402 
2082.078285  	95.716770 
2083.515192  	95.828234 
2084.952099  	95.923576 
2086.389006  	95.918710 
2087.825913  	95.908982 
2089.262820  	95.904254 
2090.699727  	95.888716 
2092.136634  	95.891572 
2093.573541  	95.935190 
2095.010448  	95.914078 
2096.447355  	95.844071 
2097.884262  	95.880177 
2099.321169  	95.914765 
2100.758076  	95.898825 
2102.194983  	95.905561 
2103.631890  	95.855452 
2105.068797  	95.825691 
2106.505704  	95.846307 
2107.942611  	95.817588 
2109.379518  	95.815477 
2110.816425  	95.812144 
2112.253332  	95.780284 
2113.690239  	95.776455 
2115.127147  	95.713160 
2116.564054  	95.666733 
2118.000961  	95.696066 
2119.437868  	95.722551 
2120.874775  	95.834457 
2122.311682  	95.890550 
2123.748589  	95.787890 
2125.185496  	95.811567 
2126.622403  	95.921312 
2128.059310  	95.968443 
2129.496217  	96.038743 
2130.933124  	96.067209 
2132.370031  	96.029534 
2133.806938  	95.910080 
2135.243845  	95.747657 
2136.680752  	95.742333 
2138.117659  	95.803097 
2139.554566  	95.923213 
2140.991473  	96.200865 
2142.428380  	96.287465 
2143.865287  	96.192475 
2145.302194  	96.119797 
2146.739101  	96.015182 
2148.176008  	96.027481 
2149.612915  	96.163698 
2151.049822  	96.184844 
2152.486729  	96.031585 
2153.923636  	95.885672 
2155.360543  	96.053898 
2156.797450  	96.222341 
2158.234357  	96.049687 
2159.671264  	95.850504 
2161.108171  	95.538134 
2162.545078  	95.481046 
2163.981985  	95.876973 
2165.418893  	95.812641 
2166.855800  	95.579917 
2168.292707  	95.840412 
2169.729614  	96.021123 
2171.166521  	96.125325 
2172.603428  	96.254116 
2174.040335  	95.969393 
2175.477242  	95.703881 
2176.914149  	95.971375 
2178.351056  	96.186977 
2179.787963  	96.002698 
2181.224870  	95.861695 
2182.661777  	95.900750 
2184.098684  	95.833837 
2185.535591  	95.829162 
2186.972498  	95.852821 
2188.409405  	95.632148 
2189.846312  	95.617434 
2191.283219  	95.836015 
2192.720126  	95.822343 
2194.157033  	95.867213 
2195.593940  	95.993914 
2197.030847  	95.955243 
2198.467754  	95.972629 
2199.904661  	95.922526 
2201.341568  	95.803461 
2202.778475  	95.843065 
2204.215382  	95.832429 
2205.652289  	95.815675 
2207.089196  	95.923052 
2208.526103  	95.899106 
2209.963010  	95.729784 
2211.399917  	95.605912 
2212.836824  	95.683459 
2214.273732  	95.833568 
2215.710639  	95.786186 
2217.147546  	95.820527 
2218.584453  	96.030201 
2220.021360  	96.032495 
2221.458267  	95.925624 
2222.895174  	95.955469 
2224.332081  	96.058648 
2225.768988  	96.074141 
2227.205895  	95.951233 
2228.642802  	95.914137 
2230.079709  	95.964456 
2231.516616  	95.966726 
2232.953523  	96.030871 
2234.390430  	96.068117 
2235.827337  	96.068924 
2237.264244  	96.153058 
2238.701151  	96.078402 
2240.138058  	95.938169 
2241.574965  	96.017539 
2243.011872  	96.092131 
2244.448779  	96.065575 
2245.885686  	96.084335 
2247.322593  	96.094842 
2248.759500  	96.029601 
2250.196407  	95.997141 
2251.633314  	96.132979 
2253.070221  	96.256970 
2254.507128  	96.163168 
2255.944035  	96.035356 
2257.380942  	95.996772 
2258.817849  	96.053423 
2260.254756  	96.170353 
2261.691663  	96.160537 
2263.128570  	96.107410 
2264.565478  	96.121716 
2266.002385  	96.106070 
2267.439292  	96.159481 
2268.876199  	96.200077 
2270.313106  	96.087881 
2271.750013  	96.090536 
2273.186920  	96.205034 
2274.623827  	96.201771 
2276.060734  	96.179763 
2277.497641  	96.204833 
2278.934548  	96.222509 
2280.371455  	96.221852 
2281.808362  	96.201895 
2283.245269  	96.199116 
2284.682176  	96.180089 
2286.119083  	96.131163 
2287.555990  	96.164345 
2288.992897  	96.284594 
2290.429804  	96.363180 
2291.866711  	96.349698 
2293.303618  	96.330816 
2294.740525  	96.350984 
2296.177432  	96.356107 
2297.614339  	96.366269 
2299.051246  	96.329890 
2300.488153  	96.383436 
2301.925060  	96.401125 
2303.361967  	96.429122 
2304.798874  	96.419504 
2306.235781  	96.425159 
2307.672688  	96.428751 
2309.109595  	96.410901 
2310.546502  	96.417463 
2311.983409  	96.450873 
2313.420317  	96.491457 
2314.857224  	96.471686 
2316.294131  	96.421874 
2317.731038  	96.430744 
2319.167945  	96.411994 
2320.604852  	96.380001 
2322.041759  	96.367093 
2323.478666  	96.267369 
2324.915573  	96.282896 
2326.352480  	96.481147 
2327.789387  	96.594068 
2329.226294  	96.643534 
2330.663201  	96.709783 
2332.100108  	96.704399 
2333.537015  	96.693763 
2334.973922  	96.696027 
2336.410829  	96.707512 
2337.847736  	96.774166 
2339.284643  	96.818621 
2340.721550  	96.840928 
2342.158457  	96.805749 
2343.595364  	96.677469 
2345.032271  	96.647633 
2346.469178  	96.698918 
2347.906085  	96.688984 
2349.342992  	96.679648 
2350.779899  	96.696250 
2352.216806  	96.766552 
2353.653713  	96.857471 
2355.090620  	96.817030 
2356.527527  	96.742623 
2357.964434  	96.784667 
2359.401341  	96.838785 
2360.838248  	96.857775 
2362.275155  	96.868901 
2363.712063  	96.911625 
2365.148970  	96.957405 
2366.585877  	96.966755 
2368.022784  	97.058108 
2369.459691  	97.146444 
2370.896598  	97.115699 
2372.333505  	97.119211 
2373.770412  	97.154188 
2375.207319  	97.120636 
2376.644226  	97.081413 
2378.081133  	97.068533 
2379.518040  	97.047405 
2380.954947  	97.023199 
2382.391854  	97.021618 
2383.828761  	97.028838 
2385.265668  	97.015766 
2386.702575  	97.006257 
2388.139482  	97.004793 
2389.576389  	96.986718 
2391.013296  	96.988753 
2392.450203  	97.015558 
2393.887110  	97.016599 
2395.324017  	96.999663 
2396.760924  	96.992139 
2398.197831  	97.017654 
2399.634738  	97.079596 
2401.071645  	97.105675 
2402.508552  	97.068499 
2403.945459  	97.039077 
2405.382366  	97.039241 
2406.819273  	97.015053 
2408.256180  	96.974502 
2409.693087  	96.982159 
2411.129994  	97.027569 
2412.566901  	97.058031 
2414.003809  	97.059214 
2415.440716  	97.046204 
2416.877623  	97.060265 
2418.314530  	97.084922 
2419.751437  	97.081921 
2421.188344  	97.099681 
2422.625251  	97.118378 
2424.062158  	97.088320 
2425.499065  	97.082696 
2426.935972  	97.098443 
2428.372879  	97.064409 
2429.809786  	97.028131 
2431.246693  	97.067109 
2432.683600  	97.149400 
2434.120507  	97.148995 
2435.557414  	97.103880 
2436.994321  	97.167622 
2438.431228  	97.215691 
2439.868135  	97.149910 
2441.305042  	97.139296 
2442.741949  	97.178717 
2444.178856  	97.168086 
2445.615763  	97.137919 
2447.052670  	97.114037 
2448.489577  	97.150509 
2449.926484  	97.211232 
2451.363391  	97.186235 
2452.800298  	97.151161 
2454.237205  	97.161222 
2455.674112  	97.175215 
2457.111019  	97.216094 
2458.547926  	97.244412 
2459.984833  	97.227190 
2461.421740  	97.222970 
2462.858648  	97.228540 
2464.295555  	97.229233 
2465.732462  	97.250708 
2467.169369  	97.279252 
2468.606276  	97.278912 
2470.043183  	97.247924 
2471.480090  	97.227402 
2472.916997  	97.229045 
2474.353904  	97.228597 
2475.790811  	97.226151 
2477.227718  	97.228548 
2478.664625  	97.233786 
2480.101532  	97.220792 
2481.538439  	97.206111 
2482.975346  	97.245713 
2484.412253  	97.268622 
2485.849160  	97.217754 
2487.286067  	97.189626 
2488.722974  	97.198707 
2490.159881  	97.215533 
2491.596788  	97.245742 
2493.033695  	97.242550 
2494.470602  	97.253531 
2495.907509  	97.312757 
2497.344416  	97.304280 
2498.781323  	97.242209 
2500.218230  	97.234586 
2501.655137  	97.263313 
2503.092044  	97.265639 
2504.528951  	97.252782 
2505.965858  	97.283177 
2507.402765  	97.314278 
2508.839672  	97.288304 
2510.276579  	97.267432 
2511.713486  	97.254966 
2513.150394  	97.254435 
2514.587301  	97.309594 
2516.024208  	97.329384 
2517.461115  	97.287289 
2518.898022  	97.242890 
2520.334929  	97.198448 
2521.771836  	97.225071 
2523.208743  	97.285193 
2524.645650  	97.259382 
2526.082557  	97.236863 
2527.519464  	97.252021 
2528.956371  	97.240711 
2530.393278  	97.235552 
2531.830185  	97.230260 
2533.267092  	97.240237 
2534.703999  	97.291765 
2536.140906  	97.300995 
2537.577813  	97.267014 
2539.014720  	97.256378 
2540.451627  	97.269628 
2541.888534  	97.273754 
2543.325441  	97.239443 
2544.762348  	97.220296 
2546.199255  	97.238888 
2547.636162  	97.243484 
2549.073069  	97.266742 
2550.509976  	97.289429 
2551.946883  	97.254219 
2553.383790  	97.225316 
2554.820697  	97.231114 
2556.257604  	97.269380 
2557.694511  	97.323300 
2559.131418  	97.309277 
2560.568325  	97.265556 
2562.005232  	97.245438 
2563.442140  	97.209600 
2564.879047  	97.213151 
2566.315954  	97.277980 
2567.752861  	97.305797 
2569.189768  	97.257443 
2570.626675  	97.193217 
2572.063582  	97.197994 
2573.500489  	97.230910 
2574.937396  	97.221915 
2576.374303  	97.242448 
2577.811210  	97.279807 
2579.248117  	97.264456 
2580.685024  	97.246862 
2582.121931  	97.223827 
2583.558838  	97.193420 
2584.995745  	97.217249 
2586.432652  	97.250833 
2587.869559  	97.248042 
2589.306466  	97.232321 
2590.743373  	97.219786 
2592.180280  	97.224932 
2593.617187  	97.223101 
2595.054094  	97.201317 
2596.491001  	97.185348 
2597.927908  	97.176801 
2599.364815  	97.200886 
2600.801722  	97.240519 
2602.238629  	97.233730 
2603.675536  	97.218604 
2605.112443  	97.211025 
2606.549350  	97.183993 
2607.986257  	97.200504 
2609.423164  	97.254437 
2610.860071  	97.253730 
2612.296979  	97.215534 
2613.733886  	97.198607 
2615.170793  	97.192628 
2616.607700  	97.192730 
2618.044607  	97.227369 
2619.481514  	97.259886 
2620.918421  	97.226513 
2622.355328  	97.196278 
2623.792235  	97.234901 
2625.229142  	97.255416 
2626.666049  	97.233200 
2628.102956  	97.237312 
2629.539863  	97.248223 
2630.976770  	97.236642 
2632.413677  	97.223087 
2633.850584  	97.209822 
2635.287491  	97.220169 
2636.724398  	97.257197 
2638.161305  	97.260700 
2639.598212  	97.237061 
2641.035119  	97.244670 
2642.472026  	97.269692 
2643.908933  	97.281116 
2645.345840  	97.283258 
2646.782747  	97.281661 
2648.219654  	97.285251 
2649.656561  	97.287201 
2651.093468  	97.268951 
2652.530375  	97.248232 
2653.967282  	97.252767 
2655.404189  	97.278687 
2656.841096  	97.298698 
2658.278003  	97.303057 
2659.714910  	97.312352 
2661.151817  	97.317399 
2662.588725  	97.301573 
2664.025632  	97.294479 
2665.462539  	97.304280 
2666.899446  	97.321589 
2668.336353  	97.345446 
2669.773260  	97.343533 
2671.210167  	97.327862 
2672.647074  	97.336722 
2674.083981  	97.339813 
2675.520888  	97.335551 
2676.957795  	97.340703 
2678.394702  	97.328316 
2679.831609  	97.322142 
2681.268516  	97.336063 
2682.705423  	97.332366 
2684.142330  	97.322621 
2685.579237  	97.319912 
2687.016144  	97.325507 
2688.453051  	97.340231 
2689.889958  	97.322626 
2691.326865  	97.301114 
2692.763772  	97.325223 
2694.200679  	97.331733 
2695.637586  	97.315046 
2697.074493  	97.330416 
2698.511400  	97.336028 
2699.948307  	97.313860 
2701.385214  	97.310276 
2702.822121  	97.326938 
2704.259028  	97.336091 
2705.695935  	97.312800 
2707.132842  	97.281639 
2708.569749  	97.292665 
2710.006656  	97.307228 
2711.443564  	97.291270 
2712.880471  	97.297408 
2714.317378  	97.317394 
2715.754285  	97.300646 
2717.191192  	97.284704 
2718.628099  	97.300068 
2720.065006  	97.297791 
2721.501913  	97.266640 
2722.938820  	97.256768 
2724.375727  	97.268154 
2725.812634  	97.261826 
2727.249541  	97.257421 
2728.686448  	97.276393 
2730.123355  	97.279955 
2731.560262  	97.267866 
2732.997169  	97.270841 
2734.434076  	97.264862 
2735.870983  	97.251258 
2737.307890  	97.260080 
2738.744797  	97.258083 
2740.181704  	97.230510 
2741.618611  	97.214550 
2743.055518  	97.213869 
2744.492425  	97.215279 
2745.929332  	97.209667 
2747.366239  	97.198671 
2748.803146  	97.204644 
2750.240053  	97.210377 
2751.676960  	97.192756 
2753.113867  	97.179896 
2754.550774  	97.177497 
2755.987681  	97.164540 
2757.424588  	97.147098 
2758.861495  	97.147582 
2760.298402  	97.167632 
2761.735310  	97.167034 
2763.172217  	97.142033 
2764.609124  	97.133055 
2766.046031  	97.120443 
2767.482938  	97.101076 
2768.919845  	97.113739 
2770.356752  	97.124728 
2771.793659  	97.115521 
2773.230566  	97.112006 
2774.667473  	97.095676 
2776.104380  	97.078504 
2777.541287  	97.078712 
2778.978194  	97.062316 
2780.415101  	97.044186 
2781.852008  	97.046937 
2783.288915  	97.040268 
2784.725822  	97.026085 
2786.162729  	97.023030 
2787.599636  	97.015722 
2789.036543  	96.990181 
2790.473450  	96.967094 
2791.910357  	96.976414 
2793.347264  	96.989019 
2794.784171  	96.961724 
2796.221078  	96.928055 
2797.657985  	96.923999 
2799.094892  	96.928709 
2800.531799  	96.922264 
2801.968706  	96.903376 
2803.405613  	96.883664 
2804.842520  	96.876147 
2806.279427  	96.866436 
2807.716334  	96.846038 
2809.153241  	96.839711 
2810.590148  	96.845319 
2812.027056  	96.831116 
2813.463963  	96.808976 
2814.900870  	96.798291 
2816.337777  	96.781413 
2817.774684  	96.769225 
2819.211591  	96.768763 
2820.648498  	96.744351 
2822.085405  	96.715432 
2823.522312  	96.712486 
2824.959219  	96.694410 
2826.396126  	96.655492 
2827.833033  	96.632299 
2829.269940  	96.616623 
2830.706847  	96.598637 
2832.143754  	96.583340 
2833.580661  	96.562818 
2835.017568  	96.543426 
2836.454475  	96.529600 
2837.891382  	96.509265 
2839.328289  	96.490763 
2840.765196  	96.472084 
2842.202103  	96.430729 
2843.639010  	96.399915 
2845.075917  	96.404413 
2846.512824  	96.381441 
2847.949731  	96.328568 
2849.386638  	96.312313 
2850.823545  	96.302817 
2852.260452  	96.264545 
2853.697359  	96.238598 
2855.134266  	96.224320 
2856.571173  	96.199152 
2858.008080  	96.178797 
2859.444987  	96.174184 
2860.881895  	96.170471 
2862.318802  	96.146941 
2863.755709  	96.130438 
2865.192616  	96.140090 
2866.629523  	96.124570 
2868.066430  	96.086043 
2869.503337  	96.058499 
2870.940244  	96.030918 
2872.377151  	96.032419 
2873.814058  	96.037842 
2875.250965  	95.982108 
2876.687872  	95.940970 
2878.124779  	95.939007 
2879.561686  	95.903145 
2880.998593  	95.875148 
2882.435500  	95.868386 
2883.872407  	95.827925 
2885.309314  	95.784791 
2886.746221  	95.752278 
2888.183128  	95.718011 
2889.620035  	95.705255 
2891.056942  	95.689792 
2892.493849  	95.648842 
2893.930756  	95.598909 
2895.367663  	95.549037 
2896.804570  	95.516248 
2898.241477  	95.487548 
2899.678384  	95.441786 
2901.115291  	95.409842 
2902.552198  	95.390567 
2903.989105  	95.345282 
2905.426012  	95.281476 
2906.862919  	95.234666 
2908.299826  	95.214553 
2909.736733  	95.191580 
2911.173641  	95.151606 
2912.610548  	95.113918 
2914.047455  	95.064537 
2915.484362  	94.985517 
2916.921269  	94.909442 
2918.358176  	94.870083 
2919.795083  	94.856626 
2921.231990  	94.825524 
2922.668897  	94.763680 
2924.105804  	94.706964 
2925.542711  	94.673111 
2926.979618  	94.646252 
2928.416525  	94.604797 
2929.853432  	94.552080 
2931.290339  	94.514446 
2932.727246  	94.485208 
2934.164153  	94.451225 
2935.601060  	94.412835 
2937.037967  	94.362689 
2938.474874  	94.324750 
2939.911781  	94.290940 
2941.348688  	94.234032 
2942.785595  	94.208241 
2944.222502  	94.191574 
2945.659409  	94.111156 
2947.096316  	94.035512 
2948.533223  	93.994263 
2949.970130  	93.943724 
2951.407037  	93.910631 
2952.843944  	93.873430 
2954.280851  	93.810131 
2955.717758  	93.767845 
2957.154665  	93.718749 
2958.591572  	93.641812 
2960.028479  	93.583073 
2961.465387  	93.537670 
2962.902294  	93.478210 
2964.339201  	93.410422 
2965.776108  	93.362202 
2967.213015  	93.327922 
2968.649922  	93.269096 
2970.086829  	93.212555 
2971.523736  	93.171299 
2972.960643  	93.102554 
2974.397550  	93.030650 
2975.834457  	92.982681 
2977.271364  	92.935525 
2978.708271  	92.880679 
2980.145178  	92.818070 
2981.582085  	92.756684 
2983.018992  	92.676580 
2984.455899  	92.567110 
2985.892806  	92.481122 
2987.329713  	92.411032 
2988.766620  	92.336262 
2990.203527  	92.278943 
2991.640434  	92.203006 
2993.077341  	92.120243 
2994.514248  	92.049659 
2995.951155  	91.939391 
2997.388062  	91.846978 
2998.824969  	91.796515 
3000.261876  	91.713127 
3001.698783  	91.634874 
3003.135690  	91.562607 
3004.572597  	91.459633 
3006.009504  	91.384641 
3007.446411  	91.305743 
3008.883318  	91.183416 
3010.320226  	91.077305 
3011.757133  	90.987294 
3013.194040  	90.897790 
3014.630947  	90.817076 
3016.067854  	90.741050 
3017.504761  	90.659444 
3018.941668  	90.535651 
3020.378575  	90.406877 
3021.815482  	90.332801 
3023.252389  	90.258947 
3024.689296  	90.149937 
3026.126203  	90.035624 
3027.563110  	89.938359 
3029.000017  	89.849270 
3030.436924  	89.732403 
3031.873831  	89.614769 
3033.310738  	89.515522 
3034.747645  	89.406235 
3036.184552  	89.312716 
3037.621459  	89.202648 
3039.058366  	89.064943 
3040.495273  	88.980899 
3041.932180  	88.895467 
3043.369087  	88.762014 
3044.805994  	88.638437 
3046.242901  	88.516975 
3047.679808  	88.413405 
3049.116715  	88.307243 
3050.553622  	88.147195 
3051.990529  	88.003842 
3053.427436  	87.873565 
3054.864343  	87.730056 
3056.301250  	87.617010 
3057.738157  	87.490330 
3059.175064  	87.362330 
3060.611972  	87.251271 
3062.048879  	87.099158 
3063.485786  	86.964130 
3064.922693  	86.842641 
3066.359600  	86.687446 
3067.796507  	86.564566 
3069.233414  	86.432089 
3070.670321  	86.278087 
3072.107228  	86.166072 
3073.544135  	86.037116 
3074.981042  	85.894243 
3076.417949  	85.749201 
3077.854856  	85.567058 
3079.291763  	85.426522 
3080.728670  	85.310469 
3082.165577  	85.148670 
3083.602484  	84.994554 
3085.039391  	84.844345 
3086.476298  	84.675303 
3087.913205  	84.519259 
3089.350112  	84.395649 
3090.787019  	84.277510 
3092.223926  	84.093745 
3093.660833  	83.890907 
3095.097740  	83.735102 
3096.534647  	83.575965 
3097.971554  	83.429060 
3099.408461  	83.273012 
3100.845368  	83.073155 
3102.282275  	82.926998 
3103.719182  	82.791741 
3105.156089  	82.602978 
3106.592996  	82.448357 
3108.029903  	82.315151 
3109.466811  	82.155292 
3110.903718  	81.976133 
3112.340625  	81.795473 
3113.777532  	81.624931 
3115.214439  	81.401395 
3116.651346  	81.174386 
3118.088253  	81.031638 
3119.525160  	80.884700 
3120.962067  	80.724682 
3122.398974  	80.564114 
3123.835881  	80.373760 
3125.272788  	80.233389 
3126.709695  	80.098520 
3128.146602  	79.914229 
3129.583509  	79.748069 
3131.020416  	79.562693 
3132.457323  	79.372869 
3133.894230  	79.210040 
3135.331137  	79.011605 
3136.768044  	78.822412 
3138.204951  	78.652385 
3139.641858  	78.473220 
3141.078765  	78.308035 
3142.515672  	78.132320 
3143.952579  	77.986393 
3145.389486  	77.846264 
3146.826393  	77.649728 
3148.263300  	77.493025 
3149.700207  	77.335383 
3151.137114  	77.123536 
3152.574021  	76.944658 
3154.010928  	76.763788 
3155.447835  	76.596595 
3156.884742  	76.443258 
3158.321649  	76.243922 
3159.758557  	76.107823 
3161.195464  	75.985840 
3162.632371  	75.787596 
3164.069278  	75.610533 
3165.506185  	75.436982 
3166.943092  	75.293614 
3168.379999  	75.170916 
3169.816906  	74.962575 
3171.253813  	74.802253 
3172.690720  	74.686881 
3174.127627  	74.505835 
3175.564534  	74.346311 
3177.001441  	74.188603 
3178.438348  	74.055526 
3179.875255  	73.946089 
3181.312162  	73.756969 
3182.749069  	73.626497 
3184.185976  	73.526209 
3185.622883  	73.363935 
3187.059790  	73.258639 
3188.496697  	73.090489 
3189.933604  	72.904411 
3191.370511  	72.841910 
3192.807418  	72.704342 
3194.244325  	72.550188 
3195.681232  	72.439016 
3197.118139  	72.285810 
3198.555046  	72.248382 
3199.991953  	72.186314 
3201.428860  	71.994550 
3202.865767  	71.870562 
3204.302674  	71.743906 
3205.739581  	71.650538 
3207.176488  	71.599226 
3208.613395  	71.438781 
3210.050303  	71.357268 
3211.487210  	71.318812 
3212.924117  	71.178668 
3214.361024  	71.103925 
3215.797931  	71.011125 
3217.234838  	70.873914 
3218.671745  	70.801580 
3220.108652  	70.717312 
3221.545559  	70.668336 
3222.982466  	70.594820 
3224.419373  	70.470562 
3225.856280  	70.438434 
3227.293187  	70.364577 
3228.730094  	70.289203 
3230.167001  	70.295876 
3231.603908  	70.196530 
3233.040815  	70.120489 
3234.477722  	70.097580 
3235.914629  	70.006841 
3237.351536  	69.990563 
3238.788443  	69.961166 
3240.225350  	69.903137 
3241.662257  	69.908409 
3243.099164  	69.801058 
3244.536071  	69.709344 
3245.972978  	69.741752 
3247.409885  	69.724140 
3248.846792  	69.702948 
3250.283699  	69.649056 
3251.720606  	69.573175 
3253.157513  	69.579522 
3254.594420  	69.561689 
3256.031327  	69.573593 
3257.468234  	69.587114 
3258.905142  	69.487533 
3260.342049  	69.453832 
3261.778956  	69.450013 
3263.215863  	69.424109 
3264.652770  	69.465554 
3266.089677  	69.437704 
3267.526584  	69.405150 
3268.963491  	69.411468 
3270.400398  	69.337714 
3271.837305  	69.343489 
3273.274212  	69.377891 
3274.711119  	69.323414 
3276.148026  	69.326978 
3277.584933  	69.320612 
3279.021840  	69.284173 
3280.458747  	69.283926 
3281.895654  	69.269107 
3283.332561  	69.283908 
3284.769468  	69.266271 
3286.206375  	69.223590 
3287.643282  	69.247334 
3289.080189  	69.223656 
3290.517096  	69.215975 
3291.954003  	69.249037 
3293.390910  	69.207369 
3294.827817  	69.193410 
3296.264724  	69.165169 
3297.701631  	69.142340 
3299.138538  	69.212204 
3300.575445  	69.180082 
3302.012352  	69.152042 
3303.449259  	69.196124 
3304.886166  	69.124236 
3306.323073  	69.095642 
3307.759980  	69.091755 
3309.196888  	69.047892 
3310.633795  	69.132804 
3312.070702  	69.149195 
3313.507609  	69.090583 
3314.944516  	69.107243 
3316.381423  	69.062255 
3317.818330  	69.064122 
3319.255237  	69.092919 
3320.692144  	69.034743 
3322.129051  	69.059322 
3323.565958  	69.059427 
3325.002865  	69.024505 
3326.439772  	69.063993 
3327.876679  	69.011485 
3329.313586  	68.985667 
3330.750493  	69.026779 
3332.187400  	69.014942 
3333.624307  	69.064686 
3335.061214  	69.038659 
3336.498121  	68.967652 
3337.935028  	69.034620 
3339.371935  	69.020289 
3340.808842  	69.000698 
3342.245749  	69.055951 
3343.682656  	69.029626 
3345.119563  	69.065419 
3346.556470  	69.094723 
3347.993377  	69.047830 
3349.430284  	69.074335 
3350.867191  	69.065117 
3352.304098  	69.082647 
3353.741005  	69.144865 
3355.177912  	69.128921 
3356.614819  	69.206516 
3358.051726  	69.244518 
3359.488634  	69.169131 
3360.925541  	69.213717 
3362.362448  	69.238857 
3363.799355  	69.272361 
3365.236262  	69.341643 
3366.673169  	69.254768 
3368.110076  	69.265288 
3369.546983  	69.353065 
3370.983890  	69.345108 
3372.420797  	69.451685 
3373.857704  	69.514975 
3375.294611  	69.487960 
3376.731518  	69.559329 
3378.168425  	69.586247 
3379.605332  	69.650568 
3381.042239  	69.760996 
3382.479146  	69.756917 
3383.916053  	69.819939 
3385.352960  	69.927025 
3386.789867  	70.003654 
3388.226774  	70.110785 
3389.663681  	70.112233 
3391.100588  	70.105848 
3392.537495  	70.191006 
3393.974402  	70.254968 
3395.411309  	70.327494 
3396.848216  	70.380924 
3398.285123  	70.466984 
3399.722030  	70.601013 
3401.158937  	70.649701 
3402.595844  	70.775642 
3404.032751  	70.939521 
3405.469658  	70.975287 
3406.906565  	71.071292 
3408.343473  	71.167401 
3409.780380  	71.215635 
3411.217287  	71.353578 
3412.654194  	71.447049 
3414.091101  	71.526498 
3415.528008  	71.673577 
3416.964915  	71.791905 
3418.401822  	71.890122 
3419.838729  	71.935218 
3421.275636  	72.040774 
3422.712543  	72.235877 
3424.149450  	72.273094 
3425.586357  	72.329557 
3427.023264  	72.510070 
3428.460171  	72.628705 
3429.897078  	72.772068 
3431.333985  	72.906996 
3432.770892  	72.994080 
3434.207799  	73.109999 
3435.644706  	73.147660 
3437.081613  	73.251326 
3438.518520  	73.469946 
3439.955427  	73.573430 
3441.392334  	73.671186 
3442.829241  	73.810427 
3444.266148  	73.884663 
3445.703055  	73.954706 
3447.139962  	74.102388 
3448.576869  	74.396363 
3450.013776  	74.551760 
3451.450683  	74.507787 
3452.887590  	74.643110 
3454.324497  	74.832301 
3455.761404  	74.908167 
3457.198311  	75.071574 
3458.635219  	75.206257 
3460.072126  	75.313679 
3461.509033  	75.482451 
3462.945940  	75.601113 
3464.382847  	75.748534 
3465.819754  	75.841453 
3467.256661  	75.870763 
3468.693568  	76.041079 
3470.130475  	76.177085 
3471.567382  	76.277300 
3473.004289  	76.458013 
3474.441196  	76.586149 
3475.878103  	76.763797 
3477.315010  	76.932053 
3478.751917  	76.980150 
3480.188824  	77.104351 
3481.625731  	77.259907 
3483.062638  	77.454011 
3484.499545  	77.676818 
3485.936452  	77.705240 
3487.373359  	77.767532 
3488.810266  	77.966892 
3490.247173  	78.082027 
3491.684080  	78.212421 
3493.120987  	78.320063 
3494.557894  	78.392367 
3495.994801  	78.588015 
3497.431708  	78.765371 
3498.868615  	78.893410 
3500.305522  	78.997630 
3501.742429  	79.016852 
3503.179336  	79.167483 
3504.616243  	79.444700 
3506.053150  	79.553148 
3507.490058  	79.516052 
3508.926965  	79.544024 
3510.363872  	79.816486 
3511.800779  	80.073692 
3513.237686  	80.145975 
3514.674593  	80.281018 
3516.111500  	80.425381 
3517.548407  	80.552397 
3518.985314  	80.756000 
3520.422221  	80.827476 
3521.859128  	80.857507 
3523.296035  	81.058301 
3524.732942  	81.278168 
3526.169849  	81.404278 
3527.606756  	81.442936 
3529.043663  	81.540222 
3530.480570  	81.777699 
3531.917477  	81.922718 
3533.354384  	82.019697 
3534.791291  	82.142058 
3536.228198  	82.228251 
3537.665105  	82.409240 
3539.102012  	82.562650 
3540.538919  	82.598053 
3541.975826  	82.735965 
3543.412733  	82.909792 
3544.849640  	83.022824 
3546.286547  	83.206122 
3547.723454  	83.434018 
3549.160361  	83.520681 
3550.597268  	83.432000 
3552.034175  	83.489286 
3553.471082  	83.886005 
3554.907989  	84.119832 
3556.344896  	84.116209 
3557.781804  	84.162572 
3559.218711  	84.272727 
3560.655618  	84.467443 
3562.092525  	84.697818 
3563.529432  	84.863392 
3564.966339  	84.941631 
3566.403246  	84.970386 
3567.840153  	85.322861 
3569.277060  	85.665442 
3570.713967  	85.518122 
3572.150874  	85.436915 
3573.587781  	85.610367 
3575.024688  	85.827661 
3576.461595  	85.984798 
3577.898502  	85.989436 
3579.335409  	86.014503 
3580.772316  	86.218725 
3582.209223  	86.418467 
3583.646130  	86.599422 
3585.083037  	86.658794 
3586.519944  	86.577096 
3587.956851  	86.830583 
3589.393758  	87.215809 
3590.830665  	87.187506 
3592.267572  	87.102717 
3593.704479  	87.169830 
3595.141386  	87.535325 
3596.578293  	87.855377 
3598.015200  	87.783151 
3599.452107  	87.733583 
3600.889014  	87.871160 
3602.325921  	88.070037 
3603.762828  	88.272056 
3605.199735  	88.279421 
3606.636642  	88.241808 
3608.073550  	88.505452 
3609.510457  	88.769952 
3610.947364  	88.651196 
3612.384271  	88.503277 
3613.821178  	88.728294 
3615.258085  	89.243670 
3616.694992  	89.353390 
3618.131899  	89.197978 
3619.568806  	89.281751 
3621.005713  	89.527865 
3622.442620  	89.643949 
3623.879527  	89.828281 
3625.316434  	90.082885 
3626.753341  	90.132164 
3628.190248  	90.057875 
3629.627155  	90.464424 
3631.064062  	90.756986 
3632.500969  	90.500317 
3633.937876  	90.384319 
3635.374783  	90.688905 
3636.811690  	91.081953 
3638.248597  	91.170610 
3639.685504  	91.014960 
3641.122411  	91.132160 
3642.559318  	91.421617 
3643.996225  	91.557106 
3645.433132  	91.805986 
3646.870039  	92.078981 
3648.306946  	92.004943 
3649.743853  	92.184655 
3651.180760  	92.572197 
3652.617667  	92.533713 
3654.054574  	92.537295 
3655.491481  	92.618898 
3656.928389  	92.967825 
3658.365296  	93.382724 
3659.802203  	93.335872 
3661.239110  	93.177307 
3662.676017  	93.282573 
3664.112924  	93.580323 
3665.549831  	93.749876 
3666.986738  	93.809225 
3668.423645  	93.814978 
3669.860552  	93.982758 
3671.297459  	94.223335 
3672.734366  	94.213630 
3674.171273  	94.197996 
3675.608180  	94.292717 
3677.045087  	94.642997 
3678.481994  	94.780541 
3679.918901  	94.535568 
3681.355808  	94.472256 
3682.792715  	94.733733 
3684.229622  	95.114394 
3685.666529  	95.200906 
3687.103436  	95.460158 
3688.540343  	95.550350 
3689.977250  	95.194996 
3691.414157  	95.366464 
3692.851064  	95.479008 
3694.287971  	95.328734 
3695.724878  	95.508344 
3697.161785  	95.754383 
3698.598692  	95.812686 
3700.035599  	95.861507 
3701.472506  	95.747575 
3702.909413  	95.590913 
3704.346320  	95.696149 
3705.783227  	95.820021 
3707.220135  	95.940198 
3708.657042  	96.192226 
3710.093949  	96.374311 
3711.530856  	96.323278 
3712.967763  	96.064163 
3714.404670  	95.919354 
3715.841577  	95.957073 
3717.278484  	96.114640 
3718.715391  	96.300932 
3720.152298  	96.342137 
3721.589205  	96.248073 
3723.026112  	96.154491 
3724.463019  	96.077316 
3725.899926  	96.109281 
3727.336833  	96.186107 
3728.773740  	96.246430 
3730.210647  	96.395519 
3731.647554  	96.456464 
3733.084461  	96.364684 
3734.521368  	96.484465 
3735.958275  	96.401426 
3737.395182  	96.170247 
3738.832089  	96.328551 
3740.268996  	96.479825 
3741.705903  	96.450546 
3743.142810  	96.532710 
3744.579717  	96.689344 
3746.016624  	96.677642 
3747.453531  	96.835012 
3748.890438  	96.830187 
3750.327345  	96.614685 
3751.764252  	96.810070 
3753.201159  	96.966566 
3754.638066  	96.814889 
3756.074973  	96.869943 
3757.511881  	96.911579 
3758.948788  	96.869314 
3760.385695  	96.954112 
3761.822602  	96.892747 
3763.259509  	96.827352 
3764.696416  	96.961517 
3766.133323  	97.102477 
3767.570230  	97.167273 
3769.007137  	97.218305 
3770.444044  	97.152963 
3771.880951  	97.148025 
3773.317858  	97.259671 
3774.754765  	97.262313 
3776.191672  	97.161365 
3777.628579  	97.187202 
3779.065486  	97.245870 
3780.502393  	97.234202 
3781.939300  	97.200791 
3783.376207  	97.171765 
3784.813114  	97.038373 
3786.250021  	97.045988 
3787.686928  	97.259276 
3789.123835  	97.260580 
3790.560742  	97.204461 
3791.997649  	97.318204 
3793.434556  	97.270018 
3794.871463  	97.096088 
3796.308370  	97.088956 
3797.745277  	97.203200 
3799.182184  	97.201921 
3800.619091  	97.118198 
3802.055998  	97.212538 
3803.492905  	97.393711 
3804.929812  	97.308700 
3806.366720  	97.196299 
3807.803627  	97.114543 
3809.240534  	97.208287 
3810.677441  	97.330078 
3812.114348  	97.227857 
3813.551255  	97.149972 
3814.988162  	97.339162 
3816.425069  	97.437055 
3817.861976  	97.347522 
3819.298883  	97.338221 
3820.735790  	97.152913 
3822.172697  	97.172717 
3823.609604  	97.456056 
3825.046511  	97.291668 
3826.483418  	97.091613 
3827.920325  	97.276920 
3829.357232  	97.440269 
3830.794139  	97.271456 
3832.231046  	97.098744 
3833.667953  	97.280058 
3835.104860  	97.382586 
3836.541767  	97.252112 
3837.978674  	97.415173 
3839.415581  	97.730970 
3840.852488  	97.507236 
3842.289395  	97.224803 
3843.726302  	97.212704 
3845.163209  	97.157060 
3846.600116  	97.047027 
3848.037023  	97.187701 
3849.473930  	97.441736 
3850.910837  	97.558417 
3852.347744  	97.645228 
3853.784651  	97.460741 
3855.221558  	97.099370 
3856.658466  	97.222760 
3858.095373  	97.048046 
3859.532280  	97.094382 
3860.969187  	97.543312 
3862.406094  	97.455734 
3863.843001  	97.108722 
3865.279908  	97.372843 
3866.716815  	97.332147 
3868.153722  	97.183607 
3869.590629  	97.355036 
3871.027536  	97.376038 
3872.464443  	97.409005 
3873.901350  	97.370285 
3875.338257  	97.149516 
3876.775164  	97.444709 
3878.212071  	97.558495 
3879.648978  	97.246089 
3881.085885  	97.352626 
3882.522792  	97.554265 
3883.959699  	97.210653 
3885.396606  	96.964763 
3886.833513  	97.148676 
3888.270420  	97.449667 
3889.707327  	97.462720 
3891.144234  	97.262115 
3892.581141  	97.347308 
3894.018048  	97.484633 
3895.454955  	97.219884 
3896.891862  	97.090241 
3898.328769  	97.370217 
3899.765676  	97.660357 
3901.202583  	97.579075 
3902.639490  	97.393461 
3904.076397  	97.249284 
3905.513305  	97.132009 
3906.950212  	97.164008 
3908.387119  	97.201873 
3909.824026  	97.232227 
3911.260933  	97.346146 
3912.697840  	97.358545 
3914.134747  	97.350455 
3915.571654  	97.381940 
3917.008561  	97.312605 
3918.445468  	97.260834 
3919.882375  	97.369986 
3921.319282  	97.383981 
3922.756189  	97.313808 
3924.193096  	97.307486 
3925.630003  	97.291717 
3927.066910  	97.323337 
3928.503817  	97.365507 
3929.940724  	97.307851 
3931.377631  	97.297633 
3932.814538  	97.325428 
3934.251445  	97.281578 
3935.688352  	97.273907 
3937.125259  	97.320121 
3938.562166  	97.361335 
3939.999073  	97.387882 
3941.435980  	97.369323 
3942.872887  	97.326247 
3944.309794  	97.325294 
3945.746701  	97.343785 
3947.183608  	97.312383 
3948.620515  	97.277839 
3950.057422  	97.324178 
3951.494329  	97.346970 
3952.931236  	97.296929 
3954.368143  	97.294261 
3955.805051  	97.360201 
3957.241958  	97.393507 
3958.678865  	97.400443 
3960.115772  	97.378471 
3961.552679  	97.389175 
3962.989586  	97.389166 
3964.426493  	97.393051 
3965.863400  	97.411845 
3967.300307  	97.362263 
3968.737214  	97.355260 
3970.174121  	97.432514 
3971.611028  	97.415530 
3973.047935  	97.360068 
3974.484842  	97.342358 
3975.921749  	97.326560 
3977.358656  	97.385672 
3978.795563  	97.443466 
3980.232470  	97.424248 
3981.669377  	97.435445 
3983.106284  	97.443339 
3984.543191  	97.388649 
3985.980098  	97.348510 
3987.417005  	97.352537 
3988.853912  	97.375105 
3990.290819  	97.389791 
3991.727726  	97.411791 
3993.164633  	97.438363 
3994.601540  	97.422012 
3996.038447  	97.399286 
3997.475354  	97.404827 
3998.912261  	97.428827 
4000.349168  	97.464141 