##TITLE=No Description
##DATA TYPE=INFRARED SPECTRUM
##XUNITS=1/CM
##YUNITS=%T
399.460154  	68.754047 
400.897061  	69.515876 
402.333968  	68.701326 
403.770875  	68.079885 
405.207782  	69.118192 
406.644689  	68.897852 
408.081596  	68.411988 
409.518503  	68.560902 
410.955410  	68.217483 
412.392317  	68.457409 
413.829224  	68.279475 
415.266131  	67.662427 
416.703038  	67.663952 
418.139945  	67.631343 
419.576852  	68.430414 
421.013759  	68.462879 
422.450666  	67.741969 
423.887574  	68.026446 
425.324481  	67.927383 
426.761388  	67.139386 
428.198295  	67.388250 
429.635202  	67.298496 
431.072109  	66.499343 
432.509016  	66.292723 
433.945923  	66.467573 
435.382830  	67.186564 
436.819737  	67.545240 
438.256644  	66.917449 
439.693551  	66.801627 
441.130458  	66.935449 
442.567365  	66.930710 
444.004272  	67.265661 
445.441179  	67.208092 
446.878086  	66.946880 
448.314993  	66.540342 
449.751900  	65.847595 
451.188807  	65.701269 
452.625714  	65.987753 
454.062621  	65.969701 
455.499528  	65.833795 
456.936435  	66.041826 
458.373342  	66.461258 
459.810249  	66.116375 
461.247156  	65.560409 
462.684063  	65.489587 
464.120970  	65.530485 
465.557877  	65.556300 
466.994784  	65.728541 
468.431691  	65.655655 
469.868598  	65.513959 
471.305505  	65.205003 
472.742413  	64.651405 
474.179320  	64.623775 
475.616227  	64.964570 
477.053134  	65.416185 
478.490041  	65.487567 
479.926948  	64.868626 
481.363855  	64.610844 
482.800762  	64.910254 
484.237669  	65.007632 
485.674576  	64.988129 
487.111483  	64.954721 
488.548390  	64.895421 
489.985297  	64.866508 
491.422204  	64.707658 
492.859111  	64.709958 
494.296018  	64.920241 
495.732925  	64.945500 
497.169832  	64.855044 
498.606739  	64.720017 
500.043646  	64.562529 
501.480553  	64.297339 
502.917460  	63.923347 
504.354367  	63.919545 
505.791274  	64.241211 
507.228181  	64.585782 
508.665088  	64.772104 
510.101995  	64.561071 
511.538902  	64.316849 
512.975809  	64.470285 
514.412716  	64.498788 
515.849623  	64.192916 
517.286530  	64.007568 
518.723437  	64.010694 
520.160344  	63.997309 
521.597251  	63.998947 
523.034159  	64.026617 
524.471066  	63.935824 
525.907973  	63.818581 
527.344880  	63.886480 
528.781787  	63.839121 
530.218694  	63.679668 
531.655601  	63.685389 
533.092508  	63.644733 
534.529415  	63.535064 
535.966322  	63.500532 
537.403229  	63.467686 
538.840136  	63.599387 
540.277043  	63.695912 
541.713950  	63.517463 
543.150857  	63.447657 
544.587764  	63.545468 
546.024671  	63.619664 
547.461578  	63.674612 
548.898485  	63.650193 
550.335392  	63.658880 
551.772299  	63.706240 
553.209206  	63.697765 
554.646113  	63.712541 
556.083020  	63.634919 
557.519927  	63.551174 
558.956834  	63.597784 
560.393741  	63.542199 
561.830648  	63.559563 
563.267555  	63.732527 
564.704462  	63.671841 
566.141369  	63.558845 
567.578276  	63.635010 
569.015183  	63.718653 
570.452090  	63.768589 
571.888997  	63.768228 
573.325905  	63.748681 
574.762812  	63.775918 
576.199719  	63.746565 
577.636626  	63.675148 
579.073533  	63.667682 
580.510440  	63.742268 
581.947347  	63.839471 
583.384254  	63.889903 
584.821161  	63.963885 
586.258068  	64.004441 
587.694975  	63.933783 
589.131882  	63.893500 
590.568789  	63.901658 
592.005696  	63.947939 
593.442603  	64.005289 
594.879510  	63.924130 
596.316417  	63.899608 
597.753324  	64.043211 
599.190231  	64.089315 
600.627138  	64.084873 
602.064045  	64.130336 
603.500952  	64.120987 
604.937859  	64.151166 
606.374766  	64.217415 
607.811673  	64.272476 
609.248580  	64.313637 
610.685487  	64.338596 
612.122394  	64.398196 
613.559301  	64.454222 
614.996208  	64.435579 
616.433115  	64.434618 
617.870022  	64.495373 
619.306929  	64.637828 
620.743836  	64.747405 
622.180744  	64.721718 
623.617651  	64.741839 
625.054558  	64.815609 
626.491465  	64.861593 
627.928372  	64.956082 
629.365279  	64.983982 
630.802186  	64.956817 
632.239093  	65.034657 
633.676000  	65.101667 
635.112907  	65.164032 
636.549814  	65.263968 
637.986721  	65.351932 
639.423628  	65.414672 
640.860535  	65.473679 
642.297442  	65.523716 
643.734349  	65.509883 
645.171256  	65.479312 
646.608163  	65.570977 
648.045070  	65.705294 
649.481977  	65.771988 
650.918884  	65.838478 
652.355791  	65.917866 
653.792698  	65.990193 
655.229605  	66.116821 
656.666512  	66.198539 
658.103419  	66.254975 
659.540326  	66.386237 
660.977233  	66.495586 
662.414140  	66.576057 
663.851047  	66.677959 
665.287954  	66.673474 
666.724861  	66.674964 
668.161768  	66.806520 
669.598675  	66.983622 
671.035582  	66.979333 
672.472490  	67.006472 
673.909397  	67.131378 
675.346304  	67.255253 
676.783211  	67.376191 
678.220118  	67.480657 
679.657025  	67.536741 
681.093932  	67.610293 
682.530839  	67.720729 
683.967746  	67.810051 
685.404653  	67.909643 
686.841560  	68.019914 
688.278467  	68.151360 
689.715374  	68.284269 
691.152281  	68.404676 
692.589188  	68.527354 
694.026095  	68.617711 
695.463002  	68.657019 
696.899909  	68.798062 
698.336816  	68.930181 
699.773723  	69.018334 
701.210630  	69.142641 
702.647537  	69.224598 
704.084444  	69.317338 
705.521351  	69.481125 
706.958258  	69.612756 
708.395165  	69.713588 
709.832072  	69.801705 
711.268979  	69.894954 
712.705886  	70.022788 
714.142793  	70.169551 
715.579700  	70.344080 
717.016607  	70.474771 
718.453514  	70.557045 
719.890421  	70.694646 
721.327328  	70.832840 
722.764236  	70.935127 
724.201143  	71.069999 
725.638050  	71.169934 
727.074957  	71.219650 
728.511864  	71.294114 
729.948771  	71.444089 
731.385678  	71.626530 
732.822585  	71.814977 
734.259492  	71.904289 
735.696399  	72.020952 
737.133306  	72.224094 
738.570213  	72.392859 
740.007120  	72.457999 
741.444027  	72.519072 
742.880934  	72.681343 
744.317841  	72.804176 
745.754748  	72.860368 
747.191655  	73.021857 
748.628562  	73.203058 
750.065469  	73.341815 
751.502376  	73.493087 
752.939283  	73.574260 
754.376190  	73.651067 
755.813097  	73.776356 
757.250004  	73.882602 
758.686911  	74.089990 
760.123818  	74.350179 
761.560725  	74.478571 
762.997632  	74.596385 
764.434539  	74.786411 
765.871446  	74.929769 
767.308353  	75.013125 
768.745260  	75.131276 
770.182167  	75.303092 
771.619075  	75.455384 
773.055982  	75.601158 
774.492889  	75.771398 
775.929796  	75.907009 
777.366703  	76.028250 
778.803610  	76.175192 
780.240517  	76.340227 
781.677424  	76.516636 
783.114331  	76.622433 
784.551238  	76.668234 
785.988145  	76.778470 
787.425052  	76.981107 
788.861959  	77.215434 
790.298866  	77.356846 
791.735773  	77.442662 
793.172680  	77.629032 
794.609587  	77.802238 
796.046494  	77.913783 
797.483401  	78.109471 
798.920308  	78.312206 
800.357215  	78.455483 
801.794122  	78.597016 
803.231029  	78.739237 
804.667936  	78.916648 
806.104843  	79.089962 
807.541750  	79.228647 
808.978657  	79.421031 
810.415564  	79.614715 
811.852471  	79.728654 
813.289378  	79.833572 
814.726285  	79.998346 
816.163192  	80.192618 
817.600099  	80.328399 
819.037006  	80.438977 
820.473913  	80.612152 
821.910821  	80.803723 
823.347728  	80.974319 
824.784635  	81.123833 
826.221542  	81.277596 
827.658449  	81.463697 
829.095356  	81.606668 
830.532263  	81.718295 
831.969170  	81.866982 
833.406077  	82.006177 
834.842984  	82.159006 
836.279891  	82.336251 
837.716798  	82.495729 
839.153705  	82.670866 
840.590612  	82.824912 
842.027519  	82.971073 
843.464426  	83.162355 
844.901333  	83.312647 
846.338240  	83.452081 
847.775147  	83.630116 
849.212054  	83.790252 
850.648961  	83.977763 
852.085868  	84.155998 
853.522775  	84.279353 
854.959682  	84.441855 
856.396589  	84.614468 
857.833496  	84.766875 
859.270403  	84.924391 
860.707310  	85.058097 
862.144217  	85.226632 
863.581124  	85.414052 
865.018031  	85.548290 
866.454938  	85.690967 
867.891845  	85.818629 
869.328752  	85.920181 
870.765660  	86.094183 
872.202567  	86.286587 
873.639474  	86.424949 
875.076381  	86.550530 
876.513288  	86.684004 
877.950195  	86.840045 
879.387102  	87.015358 
880.824009  	87.154630 
882.260916  	87.235485 
883.697823  	87.330330 
885.134730  	87.482529 
886.571637  	87.625181 
888.008544  	87.752044 
889.445451  	87.887285 
890.882358  	88.004746 
892.319265  	88.144960 
893.756172  	88.289243 
895.193079  	88.390308 
896.629986  	88.514609 
898.066893  	88.635121 
899.503800  	88.727553 
900.940707  	88.868445 
902.377614  	89.004035 
903.814521  	89.088051 
905.251428  	89.168772 
906.688335  	89.255919 
908.125242  	89.368497 
909.562149  	89.488501 
910.999056  	89.584815 
912.435963  	89.687900 
913.872870  	89.793454 
915.309777  	89.885646 
916.746684  	89.969494 
918.183591  	90.070872 
919.620498  	90.206175 
921.057406  	90.314910 
922.494313  	90.416699 
923.931220  	90.548787 
925.368127  	90.629698 
926.805034  	90.697091 
928.241941  	90.805251 
929.678848  	90.889449 
931.115755  	90.967002 
932.552662  	91.041647 
933.989569  	91.104007 
935.426476  	91.202131 
936.863383  	91.286388 
938.300290  	91.347877 
939.737197  	91.438756 
941.174104  	91.522495 
942.611011  	91.593133 
944.047918  	91.656316 
945.484825  	91.719379 
946.921732  	91.813391 
948.358639  	91.888565 
949.795546  	91.944646 
951.232453  	92.018569 
952.669360  	92.071389 
954.106267  	92.128382 
955.543174  	92.211842 
956.980081  	92.270580 
958.416988  	92.283758 
959.853895  	92.285614 
961.290802  	92.355204 
962.727709  	92.452752 
964.164616  	92.502490 
965.601523  	92.582342 
967.038430  	92.651232 
968.475337  	92.638658 
969.912244  	92.663247 
971.349152  	92.721244 
972.786059  	92.752098 
974.222966  	92.810866 
975.659873  	92.885040 
977.096780  	92.929183 
978.533687  	92.931287 
979.970594  	92.936034 
981.407501  	92.986386 
982.844408  	93.015624 
984.281315  	93.043452 
985.718222  	93.108127 
987.155129  	93.131638 
988.592036  	93.151349 
990.028943  	93.179701 
991.465850  	93.164318 
992.902757  	93.186145 
994.339664  	93.226260 
995.776571  	93.217432 
997.213478  	93.214930 
998.650385  	93.218270 
1000.087292  	93.227520 
1001.524199  	93.249797 
1002.961106  	93.256712 
1004.398013  	93.270897 
1005.834920  	93.272058 
1007.271827  	93.276577 
1008.708734  	93.328007 
1010.145641  	93.347588 
1011.582548  	93.355914 
1013.019455  	93.396878 
1014.456362  	93.405102 
1015.893269  	93.430285 
1017.330176  	93.485768 
1018.767083  	93.506024 
1020.203991  	93.524815 
1021.640898  	93.545245 
1023.077805  	93.564625 
1024.514712  	93.579115 
1025.951619  	93.555829 
1027.388526  	93.553563 
1028.825433  	93.560263 
1030.262340  	93.525879 
1031.699247  	93.503579 
1033.136154  	93.477623 
1034.573061  	93.457828 
1036.009968  	93.476692 
1037.446875  	93.472722 
1038.883782  	93.487772 
1040.320689  	93.542091 
1041.757596  	93.576061 
1043.194503  	93.624433 
1044.631410  	93.658197 
1046.068317  	93.673621 
1047.505224  	93.732204 
1048.942131  	93.759566 
1050.379038  	93.764181 
1051.815945  	93.814142 
1053.252852  	93.863740 
1054.689759  	93.918550 
1056.126666  	93.976752 
1057.563573  	94.015405 
1059.000480  	94.044064 
1060.437387  	94.032748 
1061.874294  	94.030481 
1063.311201  	94.073427 
1064.748108  	94.092029 
1066.185015  	94.088088 
1067.621922  	94.080172 
1069.058829  	94.084968 
1070.495737  	94.118388 
1071.932644  	94.135710 
1073.369551  	94.155620 
1074.806458  	94.169616 
1076.243365  	94.137611 
1077.680272  	94.125878 
1079.117179  	94.135633 
1080.554086  	94.151504 
1081.990993  	94.182943 
1083.427900  	94.159005 
1084.864807  	94.118306 
1086.301714  	94.102013 
1087.738621  	94.067347 
1089.175528  	94.070135 
1090.612435  	94.093632 
1092.049342  	94.090375 
1093.486249  	94.094155 
1094.923156  	94.073042 
1096.360063  	94.073284 
1097.796970  	94.114976 
1099.233877  	94.095548 
1100.670784  	94.083269 
1102.107691  	94.125093 
1103.544598  	94.144405 
1104.981505  	94.164775 
1106.418412  	94.189682 
1107.855319  	94.212025 
1109.292226  	94.235524 
1110.729133  	94.215600 
1112.166040  	94.188869 
1113.602947  	94.180153 
1115.039854  	94.186124 
1116.476761  	94.231707 
1117.913668  	94.257811 
1119.350575  	94.265282 
1120.787483  	94.289738 
1122.224390  	94.289832 
1123.661297  	94.303778 
1125.098204  	94.324044 
1126.535111  	94.311066 
1127.972018  	94.324035 
1129.408925  	94.335415 
1130.845832  	94.333083 
1132.282739  	94.349449 
1133.719646  	94.340507 
1135.156553  	94.344646 
1136.593460  	94.372082 
1138.030367  	94.385077 
1139.467274  	94.421334 
1140.904181  	94.423987 
1142.341088  	94.398131 
1143.777995  	94.413680 
1145.214902  	94.385326 
1146.651809  	94.344033 
1148.088716  	94.363158 
1149.525623  	94.367075 
1150.962530  	94.363711 
1152.399437  	94.370077 
1153.836344  	94.369531 
1155.273251  	94.376242 
1156.710158  	94.355056 
1158.147065  	94.344043 
1159.583972  	94.364313 
1161.020879  	94.359500 
1162.457786  	94.367226 
1163.894693  	94.366791 
1165.331600  	94.335486 
1166.768507  	94.341453 
1168.205414  	94.347279 
1169.642322  	94.346829 
1171.079229  	94.353677 
1172.516136  	94.324508 
1173.953043  	94.328364 
1175.389950  	94.345396 
1176.826857  	94.312804 
1178.263764  	94.316504 
1179.700671  	94.329923 
1181.137578  	94.322333 
1182.574485  	94.330831 
1184.011392  	94.299675 
1185.448299  	94.280071 
1186.885206  	94.301061 
1188.322113  	94.280805 
1189.759020  	94.271568 
1191.195927  	94.280352 
1192.632834  	94.272591 
1194.069741  	94.286987 
1195.506648  	94.274251 
1196.943555  	94.246622 
1198.380462  	94.249381 
1199.817369  	94.224092 
1201.254276  	94.208839 
1202.691183  	94.233324 
1204.128090  	94.242433 
1205.564997  	94.237064 
1207.001904  	94.212780 
1208.438811  	94.198969 
1209.875718  	94.216460 
1211.312625  	94.219344 
1212.749532  	94.231704 
1214.186439  	94.237016 
1215.623346  	94.202447 
1217.060253  	94.199310 
1218.497160  	94.212180 
1219.934068  	94.207838 
1221.370975  	94.226021 
1222.807882  	94.235522 
1224.244789  	94.217696 
1225.681696  	94.200421 
1227.118603  	94.203050 
1228.555510  	94.228710 
1229.992417  	94.229828 
1231.429324  	94.218048 
1232.866231  	94.227003 
1234.303138  	94.215426 
1235.740045  	94.201769 
1237.176952  	94.201682 
1238.613859  	94.181954 
1240.050766  	94.175537 
1241.487673  	94.189541 
1242.924580  	94.190622 
1244.361487  	94.177917 
1245.798394  	94.166788 
1247.235301  	94.175087 
1248.672208  	94.163145 
1250.109115  	94.119863 
1251.546022  	94.106201 
1252.982929  	94.106632 
1254.419836  	94.096467 
1255.856743  	94.091222 
1257.293650  	94.085444 
1258.730557  	94.089005 
1260.167464  	94.079775 
1261.604371  	94.065823 
1263.041278  	94.089021 
1264.478185  	94.086739 
1265.915092  	94.061664 
1267.351999  	94.059910 
1268.788907  	94.021730 
1270.225814  	93.979520 
1271.662721  	93.984855 
1273.099628  	93.989409 
1274.536535  	93.990829 
1275.973442  	93.979240 
1277.410349  	93.957608 
1278.847256  	93.957296 
1280.284163  	93.952989 
1281.721070  	93.962399 
1283.157977  	93.979769 
1284.594884  	93.965539 
1286.031791  	93.967864 
1287.468698  	93.981032 
1288.905605  	93.988280 
1290.342512  	94.010146 
1291.779419  	93.998878 
1293.216326  	93.990884 
1294.653233  	94.020084 
1296.090140  	94.021280 
1297.527047  	94.021913 
1298.963954  	94.036458 
1300.400861  	94.045142 
1301.837768  	94.072812 
1303.274675  	94.083570 
1304.711582  	94.091093 
1306.148489  	94.100882 
1307.585396  	94.094907 
1309.022303  	94.095328 
1310.459210  	94.110327 
1311.896117  	94.101360 
1313.333024  	94.110774 
1314.769931  	94.106595 
1316.206838  	94.100890 
1317.643745  	94.105157 
1319.080653  	94.110683 
1320.517560  	94.120300 
1321.954467  	94.125905 
1323.391374  	94.114817 
1324.828281  	94.130363 
1326.265188  	94.125958 
1327.702095  	94.103654 
1329.139002  	94.115215 
1330.575909  	94.111425 
1332.012816  	94.096979 
1333.449723  	94.097521 
1334.886630  	94.083604 
1336.323537  	94.053927 
1337.760444  	94.021517 
1339.197351  	93.995519 
1340.634258  	94.001066 
1342.071165  	94.017271 
1343.508072  	94.009979 
1344.944979  	94.003820 
1346.381886  	93.990478 
1347.818793  	93.980517 
1349.255700  	93.957460 
1350.692607  	93.921305 
1352.129514  	93.905619 
1353.566421  	93.896380 
1355.003328  	93.871025 
1356.440235  	93.852884 
1357.877142  	93.818655 
1359.314049  	93.798153 
1360.750956  	93.781452 
1362.187863  	93.745849 
1363.624770  	93.723216 
1365.061677  	93.707438 
1366.498584  	93.677531 
1367.935491  	93.640804 
1369.372399  	93.599390 
1370.809306  	93.568146 
1372.246213  	93.521668 
1373.683120  	93.448255 
1375.120027  	93.404873 
1376.556934  	93.367581 
1377.993841  	93.319357 
1379.430748  	93.287455 
1380.867655  	93.244679 
1382.304562  	93.227249 
1383.741469  	93.202866 
1385.178376  	93.145970 
1386.615283  	93.097173 
1388.052190  	93.092485 
1389.489097  	93.118173 
1390.926004  	93.143237 
1392.362911  	93.137155 
1393.799818  	93.115366 
1395.236725  	93.121811 
1396.673632  	93.146626 
1398.110539  	93.176314 
1399.547446  	93.212831 
1400.984353  	93.240641 
1402.421260  	93.275170 
1403.858167  	93.283607 
1405.295074  	93.282901 
1406.731981  	93.309821 
1408.168888  	93.345609 
1409.605795  	93.377471 
1411.042702  	93.407873 
1412.479609  	93.409999 
1413.916516  	93.429275 
1415.353423  	93.438422 
1416.790330  	93.435807 
1418.227238  	93.479585 
1419.664145  	93.523692 
1421.101052  	93.546273 
1422.537959  	93.549377 
1423.974866  	93.542458 
1425.411773  	93.581138 
1426.848680  	93.608210 
1428.285587  	93.617844 
1429.722494  	93.651598 
1431.159401  	93.678078 
1432.596308  	93.677717 
1434.033215  	93.670355 
1435.470122  	93.658507 
1436.907029  	93.676785 
1438.343936  	93.709056 
1439.780843  	93.701570 
1441.217750  	93.707490 
1442.654657  	93.707037 
1444.091564  	93.717214 
1445.528471  	93.719662 
1446.965378  	93.700730 
1448.402285  	93.711626 
1449.839192  	93.730681 
1451.276099  	93.741390 
1452.713006  	93.749755 
1454.149913  	93.696318 
1455.586820  	93.638507 
1457.023727  	93.628253 
1458.460634  	93.680996 
1459.897541  	93.722876 
1461.334448  	93.731641 
1462.771355  	93.705812 
1464.208262  	93.695089 
1465.645169  	93.695541 
1467.082076  	93.707786 
1468.518984  	93.717883 
1469.955891  	93.704284 
1471.392798  	93.684293 
1472.829705  	93.666139 
1474.266612  	93.633017 
1475.703519  	93.619272 
1477.140426  	93.627469 
1478.577333  	93.655756 
1480.014240  	93.649268 
1481.451147  	93.618889 
1482.888054  	93.607830 
1484.324961  	93.584880 
1485.761868  	93.546926 
1487.198775  	93.553137 
1488.635682  	93.511816 
1490.072589  	93.445661 
1491.509496  	93.467754 
1492.946403  	93.444012 
1494.383310  	93.407190 
1495.820217  	93.392566 
1497.257124  	93.363404 
1498.694031  	93.348106 
1500.130938  	93.319390 
1501.567845  	93.270811 
1503.004752  	93.240686 
1504.441659  	93.200951 
1505.878566  	93.162695 
1507.315473  	93.110720 
1508.752380  	93.043231 
1510.189287  	93.045753 
1511.626194  	93.052363 
1513.063101  	93.041520 
1514.500008  	93.004115 
1515.936915  	92.911983 
1517.373822  	92.864703 
1518.810730  	92.860824 
1520.247637  	92.818146 
1521.684544  	92.825219 
1523.121451  	92.770849 
1524.558358  	92.652819 
1525.995265  	92.592752 
1527.432172  	92.552898 
1528.869079  	92.542614 
1530.305986  	92.528702 
1531.742893  	92.415517 
1533.179800  	92.314400 
1534.616707  	92.242955 
1536.053614  	92.142181 
1537.490521  	92.051783 
1538.927428  	91.962205 
1540.364335  	91.888950 
1541.801242  	91.836528 
1543.238149  	91.651653 
1544.675056  	91.506081 
1546.111963  	91.443884 
1547.548870  	91.369017 
1548.985777  	91.276916 
1550.422684  	91.150894 
1551.859591  	91.006467 
1553.296498  	90.875131 
1554.733405  	90.745981 
1556.170312  	90.665861 
1557.607219  	90.551971 
1559.044126  	90.306184 
1560.481033  	90.324159 
1561.917940  	90.170385 
1563.354847  	90.008827 
1564.791754  	89.934751 
1566.228661  	89.818490 
1567.665569  	89.692315 
1569.102476  	89.610516 
1570.539383  	89.582971 
1571.976290  	89.544429 
1573.413197  	89.321083 
1574.850104  	89.182074 
1576.287011  	89.122627 
1577.723918  	89.030463 
1579.160825  	88.916796 
1580.597732  	88.819344 
1582.034639  	88.685070 
1583.471546  	88.563884 
1584.908453  	88.423335 
1586.345360  	88.293507 
1587.782267  	88.219477 
1589.219174  	88.066923 
1590.656081  	87.917686 
1592.092988  	87.787442 
1593.529895  	87.582902 
1594.966802  	87.412422 
1596.403709  	87.253206 
1597.840616  	87.070472 
1599.277523  	86.900374 
1600.714430  	86.631077 
1602.151337  	86.361356 
1603.588244  	86.122751 
1605.025151  	85.829174 
1606.462058  	85.567988 
1607.898965  	85.331316 
1609.335872  	85.040955 
1610.772779  	84.760967 
1612.209686  	84.440556 
1613.646593  	84.078375 
1615.083500  	83.752839 
1616.520407  	83.423372 
1617.957315  	83.267778 
1619.394222  	82.988515 
1620.831129  	82.517537 
1622.268036  	82.217290 
1623.704943  	82.083236 
1625.141850  	81.842080 
1626.578757  	81.618440 
1628.015664  	81.383402 
1629.452571  	81.220874 
1630.889478  	81.058113 
1632.326385  	80.783639 
1633.763292  	80.576880 
1635.200199  	80.484558 
1636.637106  	80.707412 
1638.074013  	80.827289 
1639.510920  	80.685100 
1640.947827  	80.722785 
1642.384734  	80.852104 
1643.821641  	80.794092 
1645.258548  	80.834016 
1646.695455  	81.102611 
1648.132362  	81.534830 
1649.569269  	81.729969 
1651.006176  	81.540315 
1652.443083  	81.280758 
1653.879990  	82.592265 
1655.316897  	82.859577 
1656.753804  	82.834476 
1658.190711  	83.077205 
1659.627618  	83.245063 
1661.064525  	83.448389 
1662.501432  	83.770585 
1663.938339  	84.174322 
1665.375246  	84.469662 
1666.812154  	84.649139 
1668.249061  	84.903095 
1669.685968  	85.359579 
1671.122875  	85.745410 
1672.559782  	85.981433 
1673.996689  	86.149696 
1675.433596  	86.509545 
1676.870503  	87.041189 
1678.307410  	87.203421 
1679.744317  	87.414282 
1681.181224  	87.743915 
1682.618131  	87.908456 
1684.055038  	88.194283 
1685.491945  	88.902050 
1686.928852  	89.053786 
1688.365759  	89.267401 
1689.802666  	89.566016 
1691.239573  	89.850053 
1692.676480  	90.151557 
1694.113387  	90.315624 
1695.550294  	90.516782 
1696.987201  	90.907709 
1698.424108  	91.013009 
1699.861015  	91.155459 
1701.297922  	91.571124 
1702.734829  	91.703191 
1704.171736  	91.862372 
1705.608643  	92.112335 
1707.045550  	92.336304 
1708.482457  	92.520083 
1709.919364  	92.676128 
1711.356271  	92.867070 
1712.793178  	93.061417 
1714.230085  	93.218139 
1715.666992  	93.442208 
1717.103900  	93.621624 
1718.540807  	93.772763 
1719.977714  	93.989216 
1721.414621  	94.125042 
1722.851528  	94.273838 
1724.288435  	94.473116 
1725.725342  	94.612761 
1727.162249  	94.777677 
1728.599156  	94.871194 
1730.036063  	94.937663 
1731.472970  	95.067147 
1732.909877  	95.137172 
1734.346784  	95.176504 
1735.783691  	95.344036 
1737.220598  	95.406438 
1738.657505  	95.489141 
1740.094412  	95.601390 
1741.531319  	95.647052 
1742.968226  	95.714326 
1744.405133  	95.778065 
1745.842040  	95.868202 
1747.278947  	95.983672 
1748.715854  	96.044380 
1750.152761  	96.135923 
1751.589668  	96.227106 
1753.026575  	96.282648 
1754.463482  	96.392898 
1755.900389  	96.431471 
1757.337296  	96.435112 
1758.774203  	96.504484 
1760.211110  	96.520407 
1761.648017  	96.555653 
1763.084924  	96.650255 
1764.521831  	96.689819 
1765.958738  	96.755930 
1767.395646  	96.790018 
1768.832553  	96.784243 
1770.269460  	96.823364 
1771.706367  	96.847920 
1773.143274  	96.888243 
1774.580181  	96.944221 
1776.017088  	96.935487 
1777.453995  	96.956287 
1778.890902  	96.994381 
1780.327809  	97.006596 
1781.764716  	97.076901 
1783.201623  	97.126748 
1784.638530  	97.156572 
1786.075437  	97.202756 
1787.512344  	97.207015 
1788.949251  	97.202335 
1790.386158  	97.220206 
1791.823065  	97.224785 
1793.259972  	97.264878 
1794.696879  	97.287993 
1796.133786  	97.299831 
1797.570693  	97.333520 
1799.007600  	97.338288 
1800.444507  	97.363318 
1801.881414  	97.377701 
1803.318321  	97.375015 
1804.755228  	97.427772 
1806.192135  	97.437906 
1807.629042  	97.446822 
1809.065949  	97.475041 
1810.502856  	97.457327 
1811.939763  	97.466614 
1813.376670  	97.495682 
1814.813577  	97.509044 
1816.250485  	97.545666 
1817.687392  	97.561013 
1819.124299  	97.546395 
1820.561206  	97.583678 
1821.998113  	97.594769 
1823.435020  	97.630615 
1824.871927  	97.642542 
1826.308834  	97.614910 
1827.745741  	97.624825 
1829.182648  	97.630150 
1830.619555  	97.628191 
1832.056462  	97.699750 
1833.493369  	97.733732 
1834.930276  	97.738706 
1836.367183  	97.704304 
1837.804090  	97.658802 
1839.240997  	97.704237 
1840.677904  	97.718340 
1842.114811  	97.724215 
1843.551718  	97.811950 
1844.988625  	97.800862 
1846.425532  	97.743978 
1847.862439  	97.764788 
1849.299346  	97.783673 
1850.736253  	97.829943 
1852.173160  	97.829352 
1853.610067  	97.748690 
1855.046974  	97.795237 
1856.483881  	97.842887 
1857.920788  	97.828972 
1859.357695  	97.799727 
1860.794602  	97.771967 
1862.231509  	97.821380 
1863.668416  	97.827175 
1865.105323  	97.795565 
1866.542231  	97.848774 
1867.979138  	97.811737 
1869.416045  	97.725295 
1870.852952  	97.791076 
1872.289859  	97.821679 
1873.726766  	97.834376 
1875.163673  	97.866211 
1876.600580  	97.890226 
1878.037487  	97.938449 
1879.474394  	97.859034 
1880.911301  	97.797189 
1882.348208  	97.849818 
1883.785115  	97.815903 
1885.222022  	97.841522 
1886.658929  	97.897734 
1888.095836  	97.860422 
1889.532743  	97.864180 
1890.969650  	97.859426 
1892.406557  	97.836386 
1893.843464  	97.850114 
1895.280371  	97.787221 
1896.717278  	97.738501 
1898.154185  	97.766460 
1899.591092  	97.864503 
1901.027999  	97.952195 
1902.464906  	97.859462 
1903.901813  	97.782462 
1905.338720  	97.848201 
1906.775627  	97.780513 
1908.212534  	97.788050 
1909.649441  	97.900188 
1911.086348  	97.855823 
1912.523255  	97.888356 
1913.960162  	97.912450 
1915.397069  	97.873179 
1916.833977  	97.897221 
1918.270884  	97.849728 
1919.707791  	97.822734 
1921.144698  	97.875150 
1922.581605  	97.810904 
1924.018512  	97.761716 
1925.455419  	97.759859 
1926.892326  	97.832559 
1928.329233  	97.981602 
1929.766140  	97.886932 
1931.203047  	97.821934 
1932.639954  	97.891754 
1934.076861  	97.758028 
1935.513768  	97.822500 
1936.950675  	97.913215 
1938.387582  	97.669808 
1939.824489  	97.671463 
1941.261396  	97.789905 
1942.698303  	97.770451 
1944.135210  	97.884645 
1945.572117  	97.871310 
1947.009024  	97.923206 
1948.445931  	98.035013 
1949.882838  	97.925635 
1951.319745  	97.782272 
1952.756652  	97.721941 
1954.193559  	97.750895 
1955.630466  	97.830454 
1957.067373  	97.731292 
1958.504280  	97.734052 
1959.941187  	97.716013 
1961.378094  	97.522658 
1962.815001  	97.665100 
1964.251908  	97.797920 
1965.688816  	97.742897 
1967.125723  	97.869982 
1968.562630  	97.850978 
1969.999537  	97.804487 
1971.436444  	97.771518 
1972.873351  	97.677619 
1974.310258  	97.675995 
1975.747165  	97.525437 
1977.184072  	97.363662 
1978.620979  	97.405371 
1980.057886  	97.332451 
1981.494793  	97.322042 
1982.931700  	97.317524 
1984.368607  	97.066548 
1985.805514  	96.979315 
1987.242421  	97.188060 
1988.679328  	97.274716 
1990.116235  	97.406098 
1991.553142  	97.363339 
1992.990049  	97.283451 
1994.426956  	97.298137 
1995.863863  	97.186245 
1997.300770  	97.269387 
1998.737677  	97.283544 
2000.174584  	96.958260 
2001.611491  	96.910587 
2003.048398  	96.997793 
2004.485305  	96.991972 
2005.922212  	96.999352 
2007.359119  	96.879932 
2008.796026  	96.958359 
2010.232933  	97.026580 
2011.669840  	96.901264 
2013.106747  	97.083401 
2014.543654  	97.196650 
2015.980562  	97.207034 
2017.417469  	97.283332 
2018.854376  	97.000088 
2020.291283  	96.838416 
2021.728190  	96.796787 
2023.165097  	96.654710 
2024.602004  	96.752373 
2026.038911  	96.678282 
2027.475818  	96.705152 
2028.912725  	97.065743 
2030.349632  	96.825999 
2031.786539  	96.695265 
2033.223446  	96.997813 
2034.660353  	96.780328 
2036.097260  	96.533090 
2037.534167  	96.404406 
2038.971074  	96.377961 
2040.407981  	96.795238 
2041.844888  	96.826557 
2043.281795  	96.566152 
2044.718702  	96.737276 
2046.155609  	96.876447 
2047.592516  	96.908497 
2049.029423  	96.835726 
2050.466330  	96.661397 
2051.903237  	96.859148 
2053.340144  	97.034178 
2054.777051  	96.795777 
2056.213958  	96.597910 
2057.650865  	96.647632 
2059.087772  	96.754528 
2060.524679  	96.802283 
2061.961586  	96.823444 
2063.398493  	96.795258 
2064.835401  	96.641320 
2066.272308  	96.663160 
2067.709215  	96.761367 
2069.146122  	96.599249 
2070.583029  	96.533458 
2072.019936  	96.557666 
2073.456843  	96.441311 
2074.893750  	96.511016 
2076.330657  	96.634306 
2077.767564  	96.555321 
2079.204471  	96.511353 
2080.641378  	96.541211 
2082.078285  	96.600021 
2083.515192  	96.617202 
2084.952099  	96.515347 
2086.389006  	96.477057 
2087.825913  	96.515202 
2089.262820  	96.560693 
2090.699727  	96.620515 
2092.136634  	96.575978 
2093.573541  	96.556138 
2095.010448  	96.631820 
2096.447355  	96.611884 
2097.884262  	96.596635 
2099.321169  	96.638528 
2100.758076  	96.630345 
2102.194983  	96.663528 
2103.631890  	96.761859 
2105.068797  	96.800974 
2106.505704  	96.693662 
2107.942611  	96.611164 
2109.379518  	96.686871 
2110.816425  	96.678747 
2112.253332  	96.573477 
2113.690239  	96.499781 
2115.127147  	96.416617 
2116.564054  	96.500864 
2118.000961  	96.647506 
2119.437868  	96.591119 
2120.874775  	96.608085 
2122.311682  	96.702616 
2123.748589  	96.687541 
2125.185496  	96.718141 
2126.622403  	96.694256 
2128.059310  	96.659116 
2129.496217  	96.764148 
2130.933124  	96.725710 
2132.370031  	96.690389 
2133.806938  	96.895375 
2135.243845  	96.989614 
2136.680752  	96.902828 
2138.117659  	96.760985 
2139.554566  	96.675676 
2140.991473  	96.799669 
2142.428380  	96.931207 
2143.865287  	96.934576 
2145.302194  	96.818356 
2146.739101  	96.675197 
2148.176008  	96.858675 
2149.612915  	97.265285 
2151.049822  	97.426324 
2152.486729  	97.192578 
2153.923636  	96.881975 
2155.360543  	97.111853 
2156.797450  	97.533182 
2158.234357  	97.305063 
2159.671264  	96.818228 
2161.108171  	96.599552 
2162.545078  	96.666782 
2163.981985  	96.958670 
2165.418893  	97.137735 
2166.855800  	97.058046 
2168.292707  	96.733086 
2169.729614  	96.535082 
2171.166521  	96.730556 
2172.603428  	96.898235 
2174.040335  	97.018204 
2175.477242  	97.252681 
2176.914149  	97.113915 
2178.351056  	96.795130 
2179.787963  	96.646482 
2181.224870  	96.568059 
2182.661777  	96.651235 
2184.098684  	96.734233 
2185.535591  	96.662203 
2186.972498  	96.633735 
2188.409405  	96.609616 
2189.846312  	96.678275 
2191.283219  	96.816107 
2192.720126  	96.798820 
2194.157033  	96.837307 
2195.593940  	96.879019 
2197.030847  	96.768133 
2198.467754  	96.725836 
2199.904661  	96.698042 
2201.341568  	96.709403 
2202.778475  	96.858284 
2204.215382  	96.875429 
2205.652289  	96.851871 
2207.089196  	96.913752 
2208.526103  	96.808034 
2209.963010  	96.649644 
2211.399917  	96.723892 
2212.836824  	96.873456 
2214.273732  	96.852893 
2215.710639  	96.787682 
2217.147546  	96.832211 
2218.584453  	96.780655 
2220.021360  	96.710690 
2221.458267  	96.864415 
2222.895174  	96.934301 
2224.332081  	96.839973 
2225.768988  	96.875741 
2227.205895  	96.933063 
2228.642802  	96.915793 
2230.079709  	96.952974 
2231.516616  	97.028318 
2232.953523  	97.040534 
2234.390430  	96.993045 
2235.827337  	97.030252 
2237.264244  	97.037111 
2238.701151  	96.856341 
2240.138058  	96.800894 
2241.574965  	96.947028 
2243.011872  	96.976896 
2244.448779  	96.943180 
2245.885686  	96.983886 
2247.322593  	97.009479 
2248.759500  	97.002402 
2250.196407  	97.007790 
2251.633314  	97.047172 
2253.070221  	97.072099 
2254.507128  	97.089077 
2255.944035  	97.102744 
2257.380942  	97.103459 
2258.817849  	97.140704 
2260.254756  	97.205586 
2261.691663  	97.213995 
2263.128570  	97.233003 
2264.565478  	97.272983 
2266.002385  	97.326433 
2267.439292  	97.393692 
2268.876199  	97.380224 
2270.313106  	97.356136 
2271.750013  	97.366828 
2273.186920  	97.337673 
2274.623827  	97.345653 
2276.060734  	97.396678 
2277.497641  	97.383178 
2278.934548  	97.379138 
2280.371455  	97.396937 
2281.808362  	97.391595 
2283.245269  	97.367836 
2284.682176  	97.327645 
2286.119083  	97.315745 
2287.555990  	97.342511 
2288.992897  	97.327248 
2290.429804  	97.338342 
2291.866711  	97.355264 
2293.303618  	97.326032 
2294.740525  	97.318534 
2296.177432  	97.389354 
2297.614339  	97.407625 
2299.051246  	97.345286 
2300.488153  	97.301754 
2301.925060  	97.335259 
2303.361967  	97.349986 
2304.798874  	97.289222 
2306.235781  	97.225329 
2307.672688  	97.194357 
2309.109595  	97.217778 
2310.546502  	97.261139 
2311.983409  	97.269305 
2313.420317  	97.286976 
2314.857224  	97.310361 
2316.294131  	97.314098 
2317.731038  	97.315706 
2319.167945  	97.292828 
2320.604852  	97.268075 
2322.041759  	97.228223 
2323.478666  	97.163681 
2324.915573  	97.196637 
2326.352480  	97.303433 
2327.789387  	97.383067 
2329.226294  	97.434210 
2330.663201  	97.457084 
2332.100108  	97.484336 
2333.537015  	97.489112 
2334.973922  	97.442368 
2336.410829  	97.454378 
2337.847736  	97.478402 
2339.284643  	97.458058 
2340.721550  	97.520783 
2342.158457  	97.589432 
2343.595364  	97.535960 
2345.032271  	97.431242 
2346.469178  	97.358449 
2347.906085  	97.327472 
2349.342992  	97.299408 
2350.779899  	97.350578 
2352.216806  	97.523388 
2353.653713  	97.653137 
2355.090620  	97.688701 
2356.527527  	97.721566 
2357.964434  	97.695176 
2359.401341  	97.754465 
2360.838248  	97.893795 
2362.275155  	97.869496 
2363.712063  	97.877857 
2365.148970  	97.986568 
2366.585877  	98.057949 
2368.022784  	98.134648 
2369.459691  	98.121859 
2370.896598  	98.098849 
2372.333505  	98.167440 
2373.770412  	98.149691 
2375.207319  	98.063852 
2376.644226  	97.991944 
2378.081133  	97.938948 
2379.518040  	97.969773 
2380.954947  	98.003759 
2382.391854  	97.965012 
2383.828761  	97.955697 
2385.265668  	98.019012 
2386.702575  	98.081107 
2388.139482  	98.083430 
2389.576389  	98.084695 
2391.013296  	98.113946 
2392.450203  	98.104524 
2393.887110  	98.079180 
2395.324017  	98.094912 
2396.760924  	98.091309 
2398.197831  	98.075127 
2399.634738  	98.089625 
2401.071645  	98.094654 
2402.508552  	98.111946 
2403.945459  	98.155570 
2405.382366  	98.152333 
2406.819273  	98.109464 
2408.256180  	98.122990 
2409.693087  	98.195428 
2411.129994  	98.204167 
2412.566901  	98.143962 
2414.003809  	98.145977 
2415.440716  	98.199217 
2416.877623  	98.223040 
2418.314530  	98.226998 
2419.751437  	98.229474 
2421.188344  	98.245227 
2422.625251  	98.253815 
2424.062158  	98.236018 
2425.499065  	98.246291 
2426.935972  	98.293051 
2428.372879  	98.339624 
2429.809786  	98.347379 
2431.246693  	98.302950 
2432.683600  	98.301465 
2434.120507  	98.341286 
2435.557414  	98.320264 
2436.994321  	98.293697 
2438.431228  	98.310379 
2439.868135  	98.335952 
2441.305042  	98.360800 
2442.741949  	98.351394 
2444.178856  	98.348297 
2445.615763  	98.368840 
2447.052670  	98.324088 
2448.489577  	98.310184 
2449.926484  	98.413392 
2451.363391  	98.453963 
2452.800298  	98.368458 
2454.237205  	98.284879 
2455.674112  	98.258981 
2457.111019  	98.282073 
2458.547926  	98.325209 
2459.984833  	98.357755 
2461.421740  	98.380205 
2462.858648  	98.377083 
2464.295555  	98.357608 
2465.732462  	98.373159 
2467.169369  	98.397467 
2468.606276  	98.386252 
2470.043183  	98.392845 
2471.480090  	98.413100 
2472.916997  	98.383856 
2474.353904  	98.362549 
2475.790811  	98.388890 
2477.227718  	98.418720 
2478.664625  	98.440033 
2480.101532  	98.428473 
2481.538439  	98.411000 
2482.975346  	98.429976 
2484.412253  	98.419688 
2485.849160  	98.415515 
2487.286067  	98.451758 
2488.722974  	98.414548 
2490.159881  	98.375168 
2491.596788  	98.425340 
2493.033695  	98.446788 
2494.470602  	98.454547 
2495.907509  	98.518208 
2497.344416  	98.551817 
2498.781323  	98.530888 
2500.218230  	98.513847 
2501.655137  	98.512121 
2503.092044  	98.491498 
2504.528951  	98.461986 
2505.965858  	98.472589 
2507.402765  	98.482080 
2508.839672  	98.466497 
2510.276579  	98.469896 
2511.713486  	98.474151 
2513.150394  	98.485783 
2514.587301  	98.496664 
2516.024208  	98.464341 
2517.461115  	98.466830 
2518.898022  	98.507321 
2520.334929  	98.498715 
2521.771836  	98.482677 
2523.208743  	98.480379 
2524.645650  	98.477320 
2526.082557  	98.501154 
2527.519464  	98.524710 
2528.956371  	98.536605 
2530.393278  	98.544520 
2531.830185  	98.531950 
2533.267092  	98.510951 
2534.703999  	98.494703 
2536.140906  	98.517207 
2537.577813  	98.544356 
2539.014720  	98.490200 
2540.451627  	98.446002 
2541.888534  	98.476181 
2543.325441  	98.509183 
2544.762348  	98.551248 
2546.199255  	98.556842 
2547.636162  	98.493386 
2549.073069  	98.480366 
2550.509976  	98.512753 
2551.946883  	98.517865 
2553.383790  	98.523988 
2554.820697  	98.540977 
2556.257604  	98.571770 
2557.694511  	98.592092 
2559.131418  	98.558398 
2560.568325  	98.506463 
2562.005232  	98.472486 
2563.442140  	98.473130 
2564.879047  	98.496427 
2566.315954  	98.497887 
2567.752861  	98.507142 
2569.189768  	98.523706 
2570.626675  	98.494153 
2572.063582  	98.473667 
2573.500489  	98.503067 
2574.937396  	98.525709 
2576.374303  	98.509744 
2577.811210  	98.476535 
2579.248117  	98.459052 
2580.685024  	98.445166 
2582.121931  	98.438284 
2583.558838  	98.484608 
2584.995745  	98.535633 
2586.432652  	98.530383 
2587.869559  	98.511251 
2589.306466  	98.504306 
2590.743373  	98.500872 
2592.180280  	98.495531 
2593.617187  	98.488958 
2595.054094  	98.492974 
2596.491001  	98.477914 
2597.927908  	98.436127 
2599.364815  	98.430857 
2600.801722  	98.468606 
2602.238629  	98.501021 
2603.675536  	98.514326 
2605.112443  	98.504436 
2606.549350  	98.474016 
2607.986257  	98.457233 
2609.423164  	98.461084 
2610.860071  	98.445516 
2612.296979  	98.433489 
2613.733886  	98.458795 
2615.170793  	98.448950 
2616.607700  	98.408693 
2618.044607  	98.435475 
2619.481514  	98.486050 
2620.918421  	98.491238 
2622.355328  	98.482128 
2623.792235  	98.473494 
2625.229142  	98.465131 
2626.666049  	98.458314 
2628.102956  	98.461562 
2629.539863  	98.485454 
2630.976770  	98.479089 
2632.413677  	98.446477 
2633.850584  	98.454380 
2635.287491  	98.465663 
2636.724398  	98.458428 
2638.161305  	98.475700 
2639.598212  	98.484139 
2641.035119  	98.471588 
2642.472026  	98.476697 
2643.908933  	98.476106 
2645.345840  	98.461492 
2646.782747  	98.466126 
2648.219654  	98.472635 
2649.656561  	98.456473 
2651.093468  	98.446692 
2652.530375  	98.464847 
2653.967282  	98.488469 
2655.404189  	98.497272 
2656.841096  	98.490783 
2658.278003  	98.482572 
2659.714910  	98.493687 
2661.151817  	98.507116 
2662.588725  	98.496789 
2664.025632  	98.491512 
2665.462539  	98.504911 
2666.899446  	98.500902 
2668.336353  	98.483382 
2669.773260  	98.489257 
2671.210167  	98.507808 
2672.647074  	98.513088 
2674.083981  	98.513472 
2675.520888  	98.510532 
2676.957795  	98.507695 
2678.394702  	98.527389 
2679.831609  	98.541497 
2681.268516  	98.523342 
2682.705423  	98.513478 
2684.142330  	98.522922 
2685.579237  	98.535120 
2687.016144  	98.541744 
2688.453051  	98.523111 
2689.889958  	98.510251 
2691.326865  	98.516051 
2692.763772  	98.495485 
2694.200679  	98.485367 
2695.637586  	98.511210 
2697.074493  	98.519129 
2698.511400  	98.517798 
2699.948307  	98.519193 
2701.385214  	98.502346 
2702.822121  	98.487945 
2704.259028  	98.484361 
2705.695935  	98.497877 
2707.132842  	98.531218 
2708.569749  	98.533794 
2710.006656  	98.493242 
2711.443564  	98.460829 
2712.880471  	98.469456 
2714.317378  	98.499154 
2715.754285  	98.509473 
2717.191192  	98.500643 
2718.628099  	98.476534 
2720.065006  	98.442737 
2721.501913  	98.440951 
2722.938820  	98.451345 
2724.375727  	98.439733 
2725.812634  	98.434603 
2727.249541  	98.428501 
2728.686448  	98.419712 
2730.123355  	98.427786 
2731.560262  	98.425029 
2732.997169  	98.410049 
2734.434076  	98.384358 
2735.870983  	98.350559 
2737.307890  	98.359557 
2738.744797  	98.385105 
2740.181704  	98.385702 
2741.618611  	98.395538 
2743.055518  	98.395583 
2744.492425  	98.369088 
2745.929332  	98.345384 
2747.366239  	98.321612 
2748.803146  	98.314277 
2750.240053  	98.323033 
2751.676960  	98.314109 
2753.113867  	98.301584 
2754.550774  	98.288630 
2755.987681  	98.265797 
2757.424588  	98.251251 
2758.861495  	98.242845 
2760.298402  	98.238119 
2761.735310  	98.240169 
2763.172217  	98.238127 
2764.609124  	98.231002 
2766.046031  	98.226726 
2767.482938  	98.227145 
2768.919845  	98.205791 
2770.356752  	98.168689 
2771.793659  	98.169789 
2773.230566  	98.175013 
2774.667473  	98.147170 
2776.104380  	98.141739 
2777.541287  	98.149013 
2778.978194  	98.132947 
2780.415101  	98.112492 
2781.852008  	98.087531 
2783.288915  	98.074053 
2784.725822  	98.072321 
2786.162729  	98.048686 
2787.599636  	98.030451 
2789.036543  	98.030650 
2790.473450  	98.017050 
2791.910357  	97.992661 
2793.347264  	97.977161 
2794.784171  	97.979237 
2796.221078  	97.970296 
2797.657985  	97.943107 
2799.094892  	97.944279 
2800.531799  	97.937774 
2801.968706  	97.884916 
2803.405613  	97.852489 
2804.842520  	97.850766 
2806.279427  	97.841402 
2807.716334  	97.836803 
2809.153241  	97.847641 
2810.590148  	97.858501 
2812.027056  	97.840094 
2813.463963  	97.806229 
2814.900870  	97.789279 
2816.337777  	97.760547 
2817.774684  	97.733006 
2819.211591  	97.734812 
2820.648498  	97.718025 
2822.085405  	97.690648 
2823.522312  	97.679682 
2824.959219  	97.651717 
2826.396126  	97.621032 
2827.833033  	97.608087 
2829.269940  	97.596669 
2830.706847  	97.583411 
2832.143754  	97.555868 
2833.580661  	97.521991 
2835.017568  	97.507177 
2836.454475  	97.502126 
2837.891382  	97.484851 
2839.328289  	97.445204 
2840.765196  	97.407863 
2842.202103  	97.386456 
2843.639010  	97.353828 
2845.075917  	97.319491 
2846.512824  	97.285899 
2847.949731  	97.242656 
2849.386638  	97.230368 
2850.823545  	97.229067 
2852.260452  	97.194622 
2853.697359  	97.162240 
2855.134266  	97.133465 
2856.571173  	97.100370 
2858.008080  	97.093115 
2859.444987  	97.096375 
2860.881895  	97.090683 
2862.318802  	97.073538 
2863.755709  	97.042698 
2865.192616  	97.013521 
2866.629523  	96.976540 
2868.066430  	96.938356 
2869.503337  	96.924735 
2870.940244  	96.908342 
2872.377151  	96.879827 
2873.814058  	96.851207 
2875.250965  	96.808787 
2876.687872  	96.763096 
2878.124779  	96.722397 
2879.561686  	96.697089 
2880.998593  	96.695765 
2882.435500  	96.664077 
2883.872407  	96.606413 
2885.309314  	96.582437 
2886.746221  	96.555898 
2888.183128  	96.510153 
2889.620035  	96.483481 
2891.056942  	96.453679 
2892.493849  	96.413674 
2893.930756  	96.379163 
2895.367663  	96.337109 
2896.804570  	96.295304 
2898.241477  	96.241916 
2899.678384  	96.173420 
2901.115291  	96.148980 
2902.552198  	96.143166 
2903.989105  	96.082158 
2905.426012  	96.012656 
2906.862919  	95.976305 
2908.299826  	95.929163 
2909.736733  	95.863809 
2911.173641  	95.806730 
2912.610548  	95.770837 
2914.047455  	95.740195 
2915.484362  	95.673738 
2916.921269  	95.599215 
2918.358176  	95.561558 
2919.795083  	95.509502 
2921.231990  	95.435293 
2922.668897  	95.402692 
2924.105804  	95.381927 
2925.542711  	95.326548 
2926.979618  	95.269612 
2928.416525  	95.218727 
2929.853432  	95.166090 
2931.290339  	95.141692 
2932.727246  	95.127248 
2934.164153  	95.070429 
2935.601060  	94.998619 
2937.037967  	94.962373 
2938.474874  	94.936342 
2939.911781  	94.886118 
2941.348688  	94.823114 
2942.785595  	94.758969 
2944.222502  	94.699043 
2945.659409  	94.644456 
2947.096316  	94.575540 
2948.533223  	94.493661 
2949.970130  	94.431472 
2951.407037  	94.386148 
2952.843944  	94.324397 
2954.280851  	94.255639 
2955.717758  	94.206030 
2957.154665  	94.154851 
2958.591572  	94.087060 
2960.028479  	94.021212 
2961.465387  	93.944343 
2962.902294  	93.847888 
2964.339201  	93.779492 
2965.776108  	93.746029 
2967.213015  	93.694483 
2968.649922  	93.632301 
2970.086829  	93.593789 
2971.523736  	93.531268 
2972.960643  	93.420480 
2974.397550  	93.329973 
2975.834457  	93.277779 
2977.271364  	93.219790 
2978.708271  	93.156329 
2980.145178  	93.098138 
2981.582085  	93.022295 
2983.018992  	92.912939 
2984.455899  	92.791904 
2985.892806  	92.678851 
2987.329713  	92.565472 
2988.766620  	92.474549 
2990.203527  	92.413372 
2991.640434  	92.321841 
2993.077341  	92.205716 
2994.514248  	92.112929 
2995.951155  	92.037915 
2997.388062  	91.977935 
2998.824969  	91.886567 
3000.261876  	91.732614 
3001.698783  	91.599874 
3003.135690  	91.509453 
3004.572597  	91.423615 
3006.009504  	91.343214 
3007.446411  	91.231377 
3008.883318  	91.100278 
3010.320226  	90.989851 
3011.757133  	90.871237 
3013.194040  	90.762395 
3014.630947  	90.661824 
3016.067854  	90.532460 
3017.504761  	90.424036 
3018.941668  	90.335464 
3020.378575  	90.229286 
3021.815482  	90.123572 
3023.252389  	89.992138 
3024.689296  	89.839979 
3026.126203  	89.712172 
3027.563110  	89.588853 
3029.000017  	89.459737 
3030.436924  	89.326178 
3031.873831  	89.188331 
3033.310738  	89.067131 
3034.747645  	88.952790 
3036.184552  	88.846577 
3037.621459  	88.740954 
3039.058366  	88.592819 
3040.495273  	88.419744 
3041.932180  	88.273306 
3043.369087  	88.168278 
3044.805994  	88.061455 
3046.242901  	87.908083 
3047.679808  	87.757824 
3049.116715  	87.628391 
3050.553622  	87.480162 
3051.990529  	87.339000 
3053.427436  	87.196580 
3054.864343  	87.029694 
3056.301250  	86.868979 
3057.738157  	86.714341 
3059.175064  	86.566754 
3060.611972  	86.414461 
3062.048879  	86.249540 
3063.485786  	86.106438 
3064.922693  	85.941261 
3066.359600  	85.746097 
3067.796507  	85.579799 
3069.233414  	85.406096 
3070.670321  	85.238274 
3072.107228  	85.092625 
3073.544135  	84.917064 
3074.981042  	84.761662 
3076.417949  	84.619874 
3077.854856  	84.431454 
3079.291763  	84.244230 
3080.728670  	84.055901 
3082.165577  	83.865079 
3083.602484  	83.694971 
3085.039391  	83.505473 
3086.476298  	83.322885 
3087.913205  	83.153554 
3089.350112  	82.970606 
3090.787019  	82.805389 
3092.223926  	82.624342 
3093.660833  	82.422567 
3095.097740  	82.225837 
3096.534647  	82.011716 
3097.971554  	81.826475 
3099.408461  	81.641716 
3100.845368  	81.414644 
3102.282275  	81.223924 
3103.719182  	81.040733 
3105.156089  	80.840009 
3106.592996  	80.638939 
3108.029903  	80.383592 
3109.466811  	80.153065 
3110.903718  	79.992834 
3112.340625  	79.824696 
3113.777532  	79.652648 
3115.214439  	79.458136 
3116.651346  	79.255508 
3118.088253  	79.051044 
3119.525160  	78.785023 
3120.962067  	78.568306 
3122.398974  	78.411549 
3123.835881  	78.195426 
3125.272788  	77.972048 
3126.709695  	77.728835 
3128.146602  	77.481613 
3129.583509  	77.303567 
3131.020416  	77.097311 
3132.457323  	76.892504 
3133.894230  	76.710816 
3135.331137  	76.465637 
3136.768044  	76.252567 
3138.204951  	76.052371 
3139.641858  	75.809662 
3141.078765  	75.603433 
3142.515672  	75.376271 
3143.952579  	75.147039 
3145.389486  	74.943190 
3146.826393  	74.700335 
3148.263300  	74.512964 
3149.700207  	74.333418 
3151.137114  	74.094394 
3152.574021  	73.895502 
3154.010928  	73.667577 
3155.447835  	73.438485 
3156.884742  	73.274076 
3158.321649  	73.071921 
3159.758557  	72.879486 
3161.195464  	72.670251 
3162.632371  	72.428437 
3164.069278  	72.282110 
3165.506185  	72.105715 
3166.943092  	71.874106 
3168.379999  	71.675396 
3169.816906  	71.436216 
3171.253813  	71.251394 
3172.690720  	71.094442 
3174.127627  	70.862032 
3175.564534  	70.678370 
3177.001441  	70.494306 
3178.438348  	70.306842 
3179.875255  	70.165034 
3181.312162  	69.938343 
3182.749069  	69.715346 
3184.185976  	69.519919 
3185.622883  	69.317803 
3187.059790  	69.222372 
3188.496697  	69.063127 
3189.933604  	68.853870 
3191.370511  	68.749417 
3192.807418  	68.575311 
3194.244325  	68.407643 
3195.681232  	68.276076 
3197.118139  	68.060124 
3198.555046  	67.943851 
3199.991953  	67.820998 
3201.428860  	67.615553 
3202.865767  	67.511603 
3204.302674  	67.362188 
3205.739581  	67.211349 
3207.176488  	67.130983 
3208.613395  	66.956357 
3210.050303  	66.837991 
3211.487210  	66.742807 
3212.924117  	66.562905 
3214.361024  	66.453777 
3215.797931  	66.309216 
3217.234838  	66.164023 
3218.671745  	66.105151 
3220.108652  	65.994407 
3221.545559  	65.939730 
3222.982466  	65.858738 
3224.419373  	65.683427 
3225.856280  	65.649522 
3227.293187  	65.593789 
3228.730094  	65.466806 
3230.167001  	65.414932 
3231.603908  	65.295703 
3233.040815  	65.194789 
3234.477722  	65.132535 
3235.914629  	65.035984 
3237.351536  	65.044188 
3238.788443  	64.992903 
3240.225350  	64.868983 
3241.662257  	64.824716 
3243.099164  	64.710624 
3244.536071  	64.654207 
3245.972978  	64.702458 
3247.409885  	64.657831 
3248.846792  	64.599325 
3250.283699  	64.483817 
3251.720606  	64.377334 
3253.157513  	64.414926 
3254.594420  	64.389105 
3256.031327  	64.355012 
3257.468234  	64.351750 
3258.905142  	64.258959 
3260.342049  	64.240675 
3261.778956  	64.223744 
3263.215863  	64.156722 
3264.652770  	64.171631 
3266.089677  	64.138821 
3267.526584  	64.120872 
3268.963491  	64.127826 
3270.400398  	64.039860 
3271.837305  	64.037914 
3273.274212  	64.039383 
3274.711119  	63.989527 
3276.148026  	64.036257 
3277.584933  	63.995308 
3279.021840  	63.923431 
3280.458747  	63.919674 
3281.895654  	63.870119 
3283.332561  	63.910420 
3284.769468  	63.930733 
3286.206375  	63.863397 
3287.643282  	63.889910 
3289.080189  	63.829409 
3290.517096  	63.748150 
3291.954003  	63.789456 
3293.390910  	63.748853 
3294.827817  	63.726089 
3296.264724  	63.728297 
3297.701631  	63.690856 
3299.138538  	63.748544 
3300.575445  	63.727858 
3302.012352  	63.671709 
3303.449259  	63.706127 
3304.886166  	63.627246 
3306.323073  	63.573308 
3307.759980  	63.597063 
3309.196888  	63.570148 
3310.633795  	63.616691 
3312.070702  	63.618129 
3313.507609  	63.557769 
3314.944516  	63.556329 
3316.381423  	63.510777 
3317.818330  	63.527360 
3319.255237  	63.548762 
3320.692144  	63.462825 
3322.129051  	63.463810 
3323.565958  	63.444908 
3325.002865  	63.416285 
3326.439772  	63.488172 
3327.876679  	63.448134 
3329.313586  	63.436716 
3330.750493  	63.483367 
3332.187400  	63.397811 
3333.624307  	63.393906 
3335.061214  	63.436965 
3336.498121  	63.436531 
3337.935028  	63.476399 
3339.371935  	63.402444 
3340.808842  	63.358225 
3342.245749  	63.422605 
3343.682656  	63.402704 
3345.119563  	63.427495 
3346.556470  	63.456117 
3347.993377  	63.429229 
3349.430284  	63.465849 
3350.867191  	63.445856 
3352.304098  	63.463649 
3353.741005  	63.534833 
3355.177912  	63.497666 
3356.614819  	63.545258 
3358.051726  	63.600470 
3359.488634  	63.550612 
3360.925541  	63.561076 
3362.362448  	63.536927 
3363.799355  	63.550999 
3365.236262  	63.613733 
3366.673169  	63.554653 
3368.110076  	63.608561 
3369.546983  	63.720903 
3370.983890  	63.743941 
3372.420797  	63.841896 
3373.857704  	63.868389 
3375.294611  	63.866126 
3376.731518  	63.965162 
3378.168425  	63.992132 
3379.605332  	64.069326 
3381.042239  	64.191949 
3382.479146  	64.252576 
3383.916053  	64.368303 
3385.352960  	64.399293 
3386.789867  	64.422012 
3388.226774  	64.571344 
3389.663681  	64.621317 
3391.100588  	64.661086 
3392.537495  	64.760082 
3393.974402  	64.832055 
3395.411309  	64.913125 
3396.848216  	64.911155 
3398.285123  	65.021926 
3399.722030  	65.272583 
3401.158937  	65.307660 
3402.595844  	65.353014 
3404.032751  	65.513806 
3405.469658  	65.594645 
3406.906565  	65.751730 
3408.343473  	65.896418 
3409.780380  	65.981441 
3411.217287  	66.134978 
3412.654194  	66.242977 
3414.091101  	66.399675 
3415.528008  	66.562021 
3416.964915  	66.612811 
3418.401822  	66.745405 
3419.838729  	66.841321 
3421.275636  	66.926091 
3422.712543  	67.159546 
3424.149450  	67.262957 
3425.586357  	67.353897 
3427.023264  	67.549776 
3428.460171  	67.641085 
3429.897078  	67.770643 
3431.333985  	67.939924 
3432.770892  	68.073044 
3434.207799  	68.249514 
3435.644706  	68.356790 
3437.081613  	68.511327 
3438.518520  	68.738520 
3439.955427  	68.855688 
3441.392334  	69.013807 
3442.829241  	69.192464 
3444.266148  	69.324946 
3445.703055  	69.498118 
3447.139962  	69.633591 
3448.576869  	69.848160 
3450.013776  	70.036108 
3451.450683  	70.057540 
3452.887590  	70.256094 
3454.324497  	70.521207 
3455.761404  	70.630690 
3457.198311  	70.786140 
3458.635219  	70.884569 
3460.072126  	70.963121 
3461.509033  	71.168337 
3462.945940  	71.326732 
3464.382847  	71.474732 
3465.819754  	71.614487 
3467.256661  	71.758468 
3468.693568  	72.010433 
3470.130475  	72.148447 
3471.567382  	72.259408 
3473.004289  	72.498737 
3474.441196  	72.661977 
3475.878103  	72.848210 
3477.315010  	73.059137 
3478.751917  	73.151851 
3480.188824  	73.286193 
3481.625731  	73.472029 
3483.062638  	73.681445 
3484.499545  	73.843464 
3485.936452  	73.878493 
3487.373359  	74.034422 
3488.810266  	74.262755 
3490.247173  	74.422882 
3491.684080  	74.671477 
3493.120987  	74.828611 
3494.557894  	74.885324 
3495.994801  	75.063353 
3497.431708  	75.269486 
3498.868615  	75.485646 
3500.305522  	75.596493 
3501.742429  	75.588941 
3503.179336  	75.808165 
3504.616243  	76.135853 
3506.053150  	76.335740 
3507.490058  	76.471387 
3508.926965  	76.547360 
3510.363872  	76.766995 
3511.800779  	77.025970 
3513.237686  	77.106359 
3514.674593  	77.253209 
3516.111500  	77.420723 
3517.548407  	77.563003 
3518.985314  	77.825617 
3520.422221  	78.004703 
3521.859128  	78.128980 
3523.296035  	78.309948 
3524.732942  	78.407561 
3526.169849  	78.549441 
3527.606756  	78.756063 
3529.043663  	78.972650 
3530.480570  	79.231411 
3531.917477  	79.379898 
3533.354384  	79.488229 
3534.791291  	79.649289 
3536.228198  	79.800663 
3537.665105  	80.030707 
3539.102012  	80.246422 
3540.538919  	80.390024 
3541.975826  	80.546272 
3543.412733  	80.644150 
3544.849640  	80.783006 
3546.286547  	81.014822 
3547.723454  	81.208890 
3549.160361  	81.410659 
3550.597268  	81.533488 
3552.034175  	81.658073 
3553.471082  	81.926523 
3554.907989  	82.070639 
3556.344896  	82.163449 
3557.781804  	82.352815 
3559.218711  	82.517625 
3560.655618  	82.721762 
3562.092525  	82.878608 
3563.529432  	82.931948 
3564.966339  	83.060824 
3566.403246  	83.204457 
3567.840153  	83.508790 
3569.277060  	83.856440 
3570.713967  	83.846387 
3572.150874  	83.891984 
3573.587781  	84.123904 
3575.024688  	84.312812 
3576.461595  	84.470011 
3577.898502  	84.576541 
3579.335409  	84.682689 
3580.772316  	84.895241 
3582.209223  	85.079679 
3583.646130  	85.213556 
3585.083037  	85.270467 
3586.519944  	85.294094 
3587.956851  	85.594830 
3589.393758  	85.959447 
3590.830665  	86.048296 
3592.267572  	86.076123 
3593.704479  	86.117166 
3595.141386  	86.316609 
3596.578293  	86.504350 
3598.015200  	86.516899 
3599.452107  	86.691663 
3600.889014  	87.009299 
3602.325921  	87.242903 
3603.762828  	87.384674 
3605.199735  	87.394702 
3606.636642  	87.402070 
3608.073550  	87.590997 
3609.510457  	87.872735 
3610.947364  	88.040388 
3612.384271  	88.076254 
3613.821178  	88.178954 
3615.258085  	88.400520 
3616.694992  	88.485941 
3618.131899  	88.590343 
3619.568806  	88.871481 
3621.005713  	89.156100 
3622.442620  	89.305708 
3623.879527  	89.340856 
3625.316434  	89.418376 
3626.753341  	89.566373 
3628.190248  	89.700995 
3629.627155  	90.225891 
3631.064062  	90.543745 
3632.500969  	90.323698 
3633.937876  	90.337829 
3635.374783  	90.547170 
3636.811690  	90.652996 
3638.248597  	90.832005 
3639.685504  	91.066502 
3641.122411  	91.285012 
3642.559318  	91.554667 
3643.996225  	91.744892 
3645.433132  	91.883270 
3646.870039  	92.072655 
3648.306946  	92.329897 
3649.743853  	92.645626 
3651.180760  	92.836235 
3652.617667  	92.911499 
3654.054574  	92.915177 
3655.491481  	92.950686 
3656.928389  	93.228248 
3658.365296  	93.459838 
3659.802203  	93.546281 
3661.239110  	93.841995 
3662.676017  	94.146943 
3664.112924  	94.299178 
3665.549831  	94.451066 
3666.986738  	94.598400 
3668.423645  	94.754884 
3669.860552  	94.938941 
3671.297459  	95.119232 
3672.734366  	95.205902 
3674.171273  	95.257901 
3675.608180  	95.326366 
3677.045087  	95.478161 
3678.481994  	95.626910 
3679.918901  	95.826572 
3681.355808  	95.982518 
3682.792715  	96.079529 
3684.229622  	96.240504 
3685.666529  	96.339297 
3687.103436  	96.384672 
3688.540343  	96.561796 
3689.977250  	96.743843 
3691.414157  	96.745226 
3692.851064  	96.787306 
3694.287971  	96.814254 
3695.724878  	96.863164 
3697.161785  	96.953251 
3698.598692  	97.046826 
3700.035599  	97.115733 
3701.472506  	97.178128 
3702.909413  	97.288176 
3704.346320  	97.381494 
3705.783227  	97.469666 
3707.220135  	97.573703 
3708.657042  	97.647626 
3710.093949  	97.719921 
3711.530856  	97.797267 
3712.967763  	97.796375 
3714.404670  	97.810089 
3715.841577  	97.880424 
3717.278484  	97.925660 
3718.715391  	97.953603 
3720.152298  	97.998253 
3721.589205  	98.017132 
3723.026112  	98.087912 
3724.463019  	98.154406 
3725.899926  	98.162389 
3727.336833  	98.125103 
3728.773740  	98.085209 
3730.210647  	98.151486 
3731.647554  	98.281365 
3733.084461  	98.309083 
3734.521368  	98.202898 
3735.958275  	97.999987 
3737.395182  	97.933024 
3738.832089  	98.092611 
3740.268996  	98.272375 
3741.705903  	98.456345 
3743.142810  	98.587639 
3744.579717  	98.669652 
3746.016624  	98.556385 
3747.453531  	98.457881 
3748.890438  	98.506215 
3750.327345  	98.666484 
3751.764252  	98.680023 
3753.201159  	98.527470 
3754.638066  	98.456645 
3756.074973  	98.497435 
3757.511881  	98.601108 
3758.948788  	98.698143 
3760.385695  	98.665929 
3761.822602  	98.491800 
3763.259509  	98.423676 
3764.696416  	98.454148 
3766.133323  	98.448019 
3767.570230  	98.499580 
3769.007137  	98.572295 
3770.444044  	98.520692 
3771.880951  	98.502063 
3773.317858  	98.574413 
3774.754765  	98.613814 
3776.191672  	98.626096 
3777.628579  	98.635435 
3779.065486  	98.607283 
3780.502393  	98.554160 
3781.939300  	98.547701 
3783.376207  	98.559876 
3784.813114  	98.549892 
3786.250021  	98.534329 
3787.686928  	98.570756 
3789.123835  	98.587789 
3790.560742  	98.571446 
3791.997649  	98.582511 
3793.434556  	98.659158 
3794.871463  	98.755348 
3796.308370  	98.777961 
3797.745277  	98.689501 
3799.182184  	98.717561 
3800.619091  	98.835839 
3802.055998  	98.799664 
3803.492905  	98.608215 
3804.929812  	98.630382 
3806.366720  	98.797512 
3807.803627  	98.881065 
3809.240534  	98.788439 
3810.677441  	98.792352 
3812.114348  	98.830783 
3813.551255  	98.891473 
3814.988162  	99.022191 
3816.425069  	98.967497 
3817.861976  	98.766388 
3819.298883  	98.830661 
3820.735790  	98.912014 
3822.172697  	98.783349 
3823.609604  	98.732198 
3825.046511  	98.814988 
3826.483418  	98.901074 
3827.920325  	98.807906 
3829.357232  	98.743740 
3830.794139  	98.848210 
3832.231046  	98.883833 
3833.667953  	98.829942 
3835.104860  	98.893032 
3836.541767  	98.977278 
3837.978674  	98.956773 
3839.415581  	98.802573 
3840.852488  	98.656442 
3842.289395  	98.701594 
3843.726302  	98.784730 
3845.163209  	98.712387 
3846.600116  	98.655164 
3848.037023  	98.755073 
3849.473930  	98.867545 
3850.910837  	98.920794 
3852.347744  	99.036667 
3853.784651  	99.002353 
3855.221558  	98.726153 
3856.658466  	98.753553 
3858.095373  	98.799352 
3859.532280  	98.834740 
3860.969187  	98.883312 
3862.406094  	98.815457 
3863.843001  	98.761132 
3865.279908  	98.832724 
3866.716815  	98.820480 
3868.153722  	98.842198 
3869.590629  	98.882606 
3871.027536  	98.706986 
3872.464443  	98.734937 
3873.901350  	98.840235 
3875.338257  	98.798091 
3876.775164  	98.796847 
3878.212071  	98.869902 
3879.648978  	98.876567 
3881.085885  	98.800783 
3882.522792  	98.718410 
3883.959699  	98.760687 
3885.396606  	98.868970 
3886.833513  	98.866982 
3888.270420  	98.802484 
3889.707327  	98.788694 
3891.144234  	98.777531 
3892.581141  	98.736676 
3894.018048  	98.733202 
3895.454955  	98.768865 
3896.891862  	98.804538 
3898.328769  	98.814395 
3899.765676  	98.767158 
3901.202583  	98.737538 
3902.639490  	98.796575 
3904.076397  	98.851959 
3905.513305  	98.807003 
3906.950212  	98.763960 
3908.387119  	98.716820 
3909.824026  	98.685314 
3911.260933  	98.727133 
3912.697840  	98.773755 
3914.134747  	98.797599 
3915.571654  	98.828693 
3917.008561  	98.828354 
3918.445468  	98.801617 
3919.882375  	98.773441 
3921.319282  	98.768352 
3922.756189  	98.805877 
3924.193096  	98.833013 
3925.630003  	98.794035 
3927.066910  	98.765571 
3928.503817  	98.781068 
3929.940724  	98.790371 
3931.377631  	98.781664 
3932.814538  	98.782344 
3934.251445  	98.817416 
3935.688352  	98.839851 
3937.125259  	98.848778 
3938.562166  	98.862489 
3939.999073  	98.879261 
3941.435980  	98.870658 
3942.872887  	98.810525 
3944.309794  	98.793151 
3945.746701  	98.836187 
3947.183608  	98.826174 
3948.620515  	98.805776 
3950.057422  	98.826191 
3951.494329  	98.826911 
3952.931236  	98.859253 
3954.368143  	98.908632 
3955.805051  	98.909178 
3957.241958  	98.847726 
3958.678865  	98.797117 
3960.115772  	98.777437 
3961.552679  	98.785381 
3962.989586  	98.785929 
3964.426493  	98.833529 
3965.863400  	98.909957 
3967.300307  	98.904110 
3968.737214  	98.869751 
3970.174121  	98.859756 
3971.611028  	98.830613 
3973.047935  	98.812117 
3974.484842  	98.838714 
3975.921749  	98.886739 
3977.358656  	98.888764 
3978.795563  	98.863296 
3980.232470  	98.901160 
3981.669377  	98.927151 
3983.106284  	98.905037 
3984.543191  	98.916053 
3985.980098  	98.893894 
3987.417005  	98.861172 
3988.853912  	98.888697 
3990.290819  	98.870479 
3991.727726  	98.847905 
3993.164633  	98.890559 
3994.601540  	98.901200 
3996.038447  	98.901121 
3997.475354  	98.903400 
3998.912261  	98.873389 
4000.349168  	98.883492 