##TITLE=No Description
##DATA TYPE=INFRARED SPECTRUM
##XUNITS=1/CM
##YUNITS=%T
399.460154  	33.173914 
400.897061  	30.538492 
402.333968  	31.246561 
403.770875  	31.515124 
405.207782  	30.983562 
406.644689  	31.646198 
408.081596  	30.065683 
409.518503  	29.340886 
410.955410  	30.621940 
412.392317  	30.833116 
413.829224  	31.652815 
415.266131  	31.156703 
416.703038  	29.396561 
418.139945  	29.546127 
419.576852  	29.615031 
421.013759  	30.063521 
422.450666  	31.092589 
423.887574  	30.881884 
425.324481  	30.962365 
426.761388  	30.810319 
428.198295  	30.606171 
429.635202  	31.523873 
431.072109  	31.295029 
432.509016  	30.587303 
433.945923  	30.767490 
435.382830  	30.675952 
436.819737  	31.072838 
438.256644  	31.391245 
439.693551  	31.191030 
441.130458  	31.418711 
442.567365  	31.225034 
444.004272  	31.455440 
445.441179  	31.657124 
446.878086  	30.886638 
448.314993  	31.332331 
449.751900  	31.613353 
451.188807  	31.050745 
452.625714  	31.502137 
454.062621  	31.337275 
455.499528  	31.228635 
456.936435  	32.399388 
458.373342  	32.459700 
459.810249  	32.033406 
461.247156  	31.852025 
462.684063  	31.315898 
464.120970  	31.676192 
465.557877  	31.736002 
466.994784  	31.398531 
468.431691  	31.832654 
469.868598  	31.936734 
471.305505  	32.087509 
472.742413  	32.153133 
474.179320  	31.423593 
475.616227  	31.373018 
477.053134  	31.463672 
478.490041  	31.434018 
479.926948  	32.050314 
481.363855  	32.388376 
482.800762  	32.277340 
484.237669  	31.968090 
485.674576  	31.522201 
487.111483  	31.757650 
488.548390  	32.033225 
489.985297  	31.857764 
491.422204  	31.937020 
492.859111  	31.985554 
494.296018  	31.860381 
495.732925  	31.817992 
497.169832  	31.711382 
498.606739  	31.850833 
500.043646  	32.172560 
501.480553  	32.352309 
502.917460  	32.240123 
504.354367  	32.019120 
505.791274  	32.249221 
507.228181  	32.646432 
508.665088  	32.548687 
510.101995  	32.380499 
511.538902  	32.349274 
512.975809  	32.434172 
514.412716  	32.644090 
515.849623  	32.615663 
517.286530  	32.548597 
518.723437  	32.714820 
520.160344  	32.807619 
521.597251  	32.821953 
523.034159  	32.776600 
524.471066  	32.831055 
525.907973  	33.105113 
527.344880  	33.227603 
528.781787  	33.218694 
530.218694  	33.153545 
531.655601  	32.994170 
533.092508  	33.052705 
534.529415  	33.298646 
535.966322  	33.475631 
537.403229  	33.512915 
538.840136  	33.484473 
540.277043  	33.584718 
541.713950  	33.715745 
543.150857  	33.781668 
544.587764  	33.864556 
546.024671  	33.786075 
547.461578  	33.770453 
548.898485  	34.056152 
550.335392  	34.210861 
551.772299  	34.201822 
553.209206  	34.304286 
554.646113  	34.451336 
556.083020  	34.532192 
557.519927  	34.507709 
558.956834  	34.553148 
560.393741  	34.719560 
561.830648  	34.764891 
563.267555  	34.778889 
564.704462  	34.830668 
566.141369  	34.872367 
567.578276  	35.032387 
569.015183  	35.182057 
570.452090  	35.268258 
571.888997  	35.371808 
573.325905  	35.392062 
574.762812  	35.453517 
576.199719  	35.638212 
577.636626  	35.812058 
579.073533  	35.956346 
580.510440  	35.984325 
581.947347  	35.995514 
583.384254  	36.146572 
584.821161  	36.241356 
586.258068  	36.326727 
587.694975  	36.474975 
589.131882  	36.540747 
590.568789  	36.637536 
592.005696  	36.781117 
593.442603  	36.892142 
594.879510  	37.064208 
596.316417  	37.189166 
597.753324  	37.252041 
599.190231  	37.390755 
600.627138  	37.523871 
602.064045  	37.648314 
603.500952  	37.811595 
604.937859  	37.936896 
606.374766  	38.048529 
607.811673  	38.149427 
609.248580  	38.259542 
610.685487  	38.360607 
612.122394  	38.432770 
613.559301  	38.571594 
614.996208  	38.720539 
616.433115  	38.868250 
617.870022  	39.101271 
619.306929  	39.238557 
620.743836  	39.259158 
622.180744  	39.352955 
623.617651  	39.505598 
625.054558  	39.680944 
626.491465  	39.857229 
627.928372  	39.992774 
629.365279  	40.129266 
630.802186  	40.275270 
632.239093  	40.415548 
633.676000  	40.562269 
635.112907  	40.699963 
636.549814  	40.841263 
637.986721  	40.980222 
639.423628  	41.110067 
640.860535  	41.264495 
642.297442  	41.414210 
643.734349  	41.567928 
645.171256  	41.750653 
646.608163  	41.908467 
648.045070  	42.059424 
649.481977  	42.250258 
650.918884  	42.445802 
652.355791  	42.639060 
653.792698  	42.774212 
655.229605  	42.871616 
656.666512  	43.037278 
658.103419  	43.210439 
659.540326  	43.383836 
660.977233  	43.575278 
662.414140  	43.728559 
663.851047  	43.883818 
665.287954  	44.012060 
666.724861  	44.122195 
668.161768  	44.354395 
669.598675  	44.606429 
671.035582  	44.712908 
672.472490  	44.871601 
673.909397  	45.047366 
675.346304  	45.206906 
676.783211  	45.429450 
678.220118  	45.630652 
679.657025  	45.807181 
681.093932  	46.021344 
682.530839  	46.216848 
683.967746  	46.386552 
685.404653  	46.567014 
686.841560  	46.730534 
688.278467  	46.901780 
689.715374  	47.102466 
691.152281  	47.285237 
692.589188  	47.494758 
694.026095  	47.711796 
695.463002  	47.932675 
696.899909  	48.158669 
698.336816  	48.336343 
699.773723  	48.516162 
701.210630  	48.731061 
702.647537  	48.929585 
704.084444  	49.121764 
705.521351  	49.311988 
706.958258  	49.481125 
708.395165  	49.700016 
709.832072  	49.944955 
711.268979  	50.138135 
712.705886  	50.345453 
714.142793  	50.590259 
715.579700  	50.788095 
717.016607  	50.939224 
718.453514  	51.159825 
719.890421  	51.403692 
721.327328  	51.623151 
722.764236  	51.833233 
724.201143  	52.044163 
725.638050  	52.230646 
727.074957  	52.406482 
728.511864  	52.598004 
729.948771  	52.843200 
731.385678  	53.062529 
732.822585  	53.241383 
734.259492  	53.505734 
735.696399  	53.776527 
737.133306  	53.959170 
738.570213  	54.167695 
740.007120  	54.404752 
741.444027  	54.631898 
742.880934  	54.866361 
744.317841  	55.063788 
745.754748  	55.295840 
747.191655  	55.598749 
748.628562  	55.852362 
750.065469  	56.093207 
751.502376  	56.356604 
752.939283  	56.563484 
754.376190  	56.742281 
755.813097  	56.930476 
757.250004  	57.158037 
758.686911  	57.427282 
760.123818  	57.635360 
761.560725  	57.852393 
762.997632  	58.178060 
764.434539  	58.441065 
765.871446  	58.590840 
767.308353  	58.783324 
768.745260  	59.033653 
770.182167  	59.280468 
771.619075  	59.523095 
773.055982  	59.765659 
774.492889  	60.001585 
775.929796  	60.235109 
777.366703  	60.473790 
778.803610  	60.703565 
780.240517  	60.934971 
781.677424  	61.180325 
783.114331  	61.409795 
784.551238  	61.668767 
785.988145  	61.997956 
787.425052  	62.282916 
788.861959  	62.471814 
790.298866  	62.655924 
791.735773  	62.875960 
793.172680  	63.119613 
794.609587  	63.386745 
796.046494  	63.667486 
797.483401  	63.939665 
798.920308  	64.175340 
800.357215  	64.394934 
801.794122  	64.657154 
803.231029  	64.930512 
804.667936  	65.158191 
806.104843  	65.396574 
807.541750  	65.670200 
808.978657  	65.911530 
810.415564  	66.125677 
811.852471  	66.353533 
813.289378  	66.601237 
814.726285  	66.870444 
816.163192  	67.135669 
817.600099  	67.411558 
819.037006  	67.699739 
820.473913  	67.913487 
821.910821  	68.107540 
823.347728  	68.375603 
824.784635  	68.637977 
826.221542  	68.887474 
827.658449  	69.165683 
829.095356  	69.413185 
830.532263  	69.632140 
831.969170  	69.857911 
833.406077  	70.105402 
834.842984  	70.372986 
836.279891  	70.611368 
837.716798  	70.861198 
839.153705  	71.157471 
840.590612  	71.403388 
842.027519  	71.587085 
843.464426  	71.797370 
844.901333  	72.073025 
846.338240  	72.357197 
847.775147  	72.597651 
849.212054  	72.865039 
850.648961  	73.143093 
852.085868  	73.363296 
853.522775  	73.613241 
854.959682  	73.874440 
856.396589  	74.084757 
857.833496  	74.322450 
859.270403  	74.560070 
860.707310  	74.781982 
862.144217  	75.052744 
863.581124  	75.314859 
865.018031  	75.543544 
866.454938  	75.763036 
867.891845  	75.963832 
869.328752  	76.173969 
870.765660  	76.406622 
872.202567  	76.665147 
873.639474  	76.910012 
875.076381  	77.106174 
876.513288  	77.323509 
877.950195  	77.542408 
879.387102  	77.743639 
880.824009  	77.994884 
882.260916  	78.239266 
883.697823  	78.459510 
885.134730  	78.664492 
886.571637  	78.813150 
888.008544  	79.014056 
889.445451  	79.259398 
890.882358  	79.452524 
892.319265  	79.666454 
893.756172  	79.870124 
895.193079  	80.034786 
896.629986  	80.221856 
898.066893  	80.396825 
899.503800  	80.597886 
900.940707  	80.808059 
902.377614  	80.963196 
903.814521  	81.145744 
905.251428  	81.314844 
906.688335  	81.467518 
908.125242  	81.677005 
909.562149  	81.828281 
910.999056  	81.968356 
912.435963  	82.166072 
913.872870  	82.309850 
915.309777  	82.482867 
916.746684  	82.701123 
918.183591  	82.862160 
919.620498  	83.009076 
921.057406  	83.113386 
922.494313  	83.219011 
923.931220  	83.396921 
925.368127  	83.543539 
926.805034  	83.696213 
928.241941  	83.868320 
929.678848  	83.972710 
931.115755  	84.099595 
932.552662  	84.260931 
933.989569  	84.392310 
935.426476  	84.500170 
936.863383  	84.572380 
938.300290  	84.670071 
939.737197  	84.801920 
941.174104  	84.932663 
942.611011  	85.080367 
944.047918  	85.159878 
945.484825  	85.220053 
946.921732  	85.365109 
948.358639  	85.477259 
949.795546  	85.570770 
951.232453  	85.704941 
952.669360  	85.808394 
954.106267  	85.909999 
955.543174  	86.010408 
956.980081  	86.110802 
958.416988  	86.217186 
959.853895  	86.256821 
961.290802  	86.346034 
962.727709  	86.498017 
964.164616  	86.529941 
965.601523  	86.550237 
967.038430  	86.658514 
968.475337  	86.772935 
969.912244  	86.890802 
971.349152  	86.972382 
972.786059  	87.020536 
974.222966  	87.069197 
975.659873  	87.096996 
977.096780  	87.167937 
978.533687  	87.261667 
979.970594  	87.339757 
981.407501  	87.448439 
982.844408  	87.498238 
984.281315  	87.504236 
985.718222  	87.570764 
987.155129  	87.637097 
988.592036  	87.708224 
990.028943  	87.783995 
991.465850  	87.819928 
992.902757  	87.880354 
994.339664  	87.932581 
995.776571  	87.953182 
997.213478  	88.005985 
998.650385  	88.049474 
1000.087292  	88.083527 
1001.524199  	88.126288 
1002.961106  	88.149650 
1004.398013  	88.193923 
1005.834920  	88.246944 
1007.271827  	88.288341 
1008.708734  	88.339482 
1010.145641  	88.369915 
1011.582548  	88.405757 
1013.019455  	88.470262 
1014.456362  	88.523692 
1015.893269  	88.546805 
1017.330176  	88.547028 
1018.767083  	88.610778 
1020.203991  	88.709340 
1021.640898  	88.716706 
1023.077805  	88.734659 
1024.514712  	88.801538 
1025.951619  	88.812405 
1027.388526  	88.817046 
1028.825433  	88.816104 
1030.262340  	88.799611 
1031.699247  	88.843543 
1033.136154  	88.880567 
1034.573061  	88.863512 
1036.009968  	88.852917 
1037.446875  	88.874867 
1038.883782  	88.921628 
1040.320689  	88.942728 
1041.757596  	88.962620 
1043.194503  	89.006379 
1044.631410  	89.017468 
1046.068317  	89.059972 
1047.505224  	89.124522 
1048.942131  	89.126220 
1050.379038  	89.150375 
1051.815945  	89.188528 
1053.252852  	89.211379 
1054.689759  	89.278913 
1056.126666  	89.310117 
1057.563573  	89.309590 
1059.000480  	89.339569 
1060.437387  	89.350021 
1061.874294  	89.365867 
1063.311201  	89.370642 
1064.748108  	89.368703 
1066.185015  	89.423553 
1067.621922  	89.438651 
1069.058829  	89.437316 
1070.495737  	89.472918 
1071.932644  	89.437473 
1073.369551  	89.424465 
1074.806458  	89.486153 
1076.243365  	89.509131 
1077.680272  	89.532120 
1079.117179  	89.544247 
1080.554086  	89.531174 
1081.990993  	89.547672 
1083.427900  	89.542805 
1084.864807  	89.553468 
1086.301714  	89.594684 
1087.738621  	89.578355 
1089.175528  	89.555598 
1090.612435  	89.551206 
1092.049342  	89.547726 
1093.486249  	89.564153 
1094.923156  	89.567222 
1096.360063  	89.584939 
1097.796970  	89.607613 
1099.233877  	89.603515 
1100.670784  	89.647728 
1102.107691  	89.680576 
1103.544598  	89.650476 
1104.981505  	89.645292 
1106.418412  	89.661128 
1107.855319  	89.698284 
1109.292226  	89.724773 
1110.729133  	89.690970 
1112.166040  	89.693907 
1113.602947  	89.717033 
1115.039854  	89.712571 
1116.476761  	89.744334 
1117.913668  	89.760655 
1119.350575  	89.760501 
1120.787483  	89.778468 
1122.224390  	89.763368 
1123.661297  	89.782331 
1125.098204  	89.824040 
1126.535111  	89.805466 
1127.972018  	89.800065 
1129.408925  	89.809406 
1130.845832  	89.805999 
1132.282739  	89.816075 
1133.719646  	89.812721 
1135.156553  	89.823725 
1136.593460  	89.823618 
1138.030367  	89.781734 
1139.467274  	89.799902 
1140.904181  	89.832926 
1142.341088  	89.806501 
1143.777995  	89.789509 
1145.214902  	89.779444 
1146.651809  	89.779487 
1148.088716  	89.804768 
1149.525623  	89.820811 
1150.962530  	89.842397 
1152.399437  	89.831652 
1153.836344  	89.791991 
1155.273251  	89.804192 
1156.710158  	89.812496 
1158.147065  	89.794374 
1159.583972  	89.801627 
1161.020879  	89.801825 
1162.457786  	89.799746 
1163.894693  	89.805868 
1165.331600  	89.802084 
1166.768507  	89.803175 
1168.205414  	89.787537 
1169.642322  	89.771061 
1171.079229  	89.781422 
1172.516136  	89.779600 
1173.953043  	89.778665 
1175.389950  	89.778787 
1176.826857  	89.759709 
1178.263764  	89.761549 
1179.700671  	89.760638 
1181.137578  	89.737537 
1182.574485  	89.734045 
1184.011392  	89.733377 
1185.448299  	89.733331 
1186.885206  	89.746265 
1188.322113  	89.740464 
1189.759020  	89.718534 
1191.195927  	89.701389 
1192.632834  	89.700954 
1194.069741  	89.708114 
1195.506648  	89.698290 
1196.943555  	89.694164 
1198.380462  	89.697756 
1199.817369  	89.686831 
1201.254276  	89.687968 
1202.691183  	89.701481 
1204.128090  	89.709743 
1205.564997  	89.711295 
1207.001904  	89.692189 
1208.438811  	89.672696 
1209.875718  	89.667017 
1211.312625  	89.656955 
1212.749532  	89.653861 
1214.186439  	89.659043 
1215.623346  	89.659014 
1217.060253  	89.662205 
1218.497160  	89.671374 
1219.934068  	89.675033 
1221.370975  	89.664050 
1222.807882  	89.657536 
1224.244789  	89.662606 
1225.681696  	89.662248 
1227.118603  	89.674500 
1228.555510  	89.683649 
1229.992417  	89.668600 
1231.429324  	89.676209 
1232.866231  	89.681829 
1234.303138  	89.652465 
1235.740045  	89.644212 
1237.176952  	89.649398 
1238.613859  	89.639159 
1240.050766  	89.635076 
1241.487673  	89.639658 
1242.924580  	89.648795 
1244.361487  	89.640110 
1245.798394  	89.615588 
1247.235301  	89.607774 
1248.672208  	89.597276 
1250.109115  	89.593523 
1251.546022  	89.604552 
1252.982929  	89.591243 
1254.419836  	89.585309 
1255.856743  	89.595475 
1257.293650  	89.591630 
1258.730557  	89.593789 
1260.167464  	89.578621 
1261.604371  	89.560330 
1263.041278  	89.582216 
1264.478185  	89.585988 
1265.915092  	89.568885 
1267.351999  	89.561733 
1268.788907  	89.545618 
1270.225814  	89.547467 
1271.662721  	89.553221 
1273.099628  	89.538724 
1274.536535  	89.538873 
1275.973442  	89.533664 
1277.410349  	89.522941 
1278.847256  	89.529641 
1280.284163  	89.536302 
1281.721070  	89.553598 
1283.157977  	89.554886 
1284.594884  	89.525101 
1286.031791  	89.522020 
1287.468698  	89.539511 
1288.905605  	89.555061 
1290.342512  	89.568271 
1291.779419  	89.573513 
1293.216326  	89.595190 
1294.653233  	89.600233 
1296.090140  	89.583711 
1297.527047  	89.605837 
1298.963954  	89.621181 
1300.400861  	89.617269 
1301.837768  	89.633755 
1303.274675  	89.636343 
1304.711582  	89.639853 
1306.148489  	89.642980 
1307.585396  	89.643711 
1309.022303  	89.655736 
1310.459210  	89.660880 
1311.896117  	89.651671 
1313.333024  	89.648764 
1314.769931  	89.646017 
1316.206838  	89.633923 
1317.643745  	89.635708 
1319.080653  	89.639002 
1320.517560  	89.659004 
1321.954467  	89.667960 
1323.391374  	89.661317 
1324.828281  	89.653500 
1326.265188  	89.647479 
1327.702095  	89.645127 
1329.139002  	89.653490 
1330.575909  	89.643875 
1332.012816  	89.644092 
1333.449723  	89.649019 
1334.886630  	89.637735 
1336.323537  	89.630629 
1337.760444  	89.605239 
1339.197351  	89.578161 
1340.634258  	89.580375 
1342.071165  	89.587936 
1343.508072  	89.588819 
1344.944979  	89.591380 
1346.381886  	89.566740 
1347.818793  	89.552295 
1349.255700  	89.543631 
1350.692607  	89.538375 
1352.129514  	89.535740 
1353.566421  	89.510440 
1355.003328  	89.494343 
1356.440235  	89.490695 
1357.877142  	89.486331 
1359.314049  	89.465968 
1360.750956  	89.437240 
1362.187863  	89.401544 
1363.624770  	89.388565 
1365.061677  	89.381393 
1366.498584  	89.365741 
1367.935491  	89.343181 
1369.372399  	89.309454 
1370.809306  	89.293298 
1372.246213  	89.263944 
1373.683120  	89.205076 
1375.120027  	89.188236 
1376.556934  	89.165683 
1377.993841  	89.121494 
1379.430748  	89.105547 
1380.867655  	89.098528 
1382.304562  	89.082888 
1383.741469  	89.064786 
1385.178376  	89.034044 
1386.615283  	89.008178 
1388.052190  	88.988820 
1389.489097  	88.982108 
1390.926004  	88.989991 
1392.362911  	89.000050 
1393.799818  	89.007597 
1395.236725  	89.015317 
1396.673632  	89.006800 
1398.110539  	89.023785 
1399.547446  	89.060962 
1400.984353  	89.102423 
1402.421260  	89.130193 
1403.858167  	89.121572 
1405.295074  	89.123699 
1406.731981  	89.160193 
1408.168888  	89.177351 
1409.605795  	89.198831 
1411.042702  	89.224006 
1412.479609  	89.242596 
1413.916516  	89.265129 
1415.353423  	89.260996 
1416.790330  	89.264351 
1418.227238  	89.286607 
1419.664145  	89.301264 
1421.101052  	89.336384 
1422.537959  	89.349437 
1423.974866  	89.321894 
1425.411773  	89.339447 
1426.848680  	89.391352 
1428.285587  	89.393907 
1429.722494  	89.391583 
1431.159401  	89.390434 
1432.596308  	89.403540 
1434.033215  	89.401487 
1435.470122  	89.373064 
1436.907029  	89.351876 
1438.343936  	89.362496 
1439.780843  	89.390373 
1441.217750  	89.411949 
1442.654657  	89.405052 
1444.091564  	89.413398 
1445.528471  	89.419535 
1446.965378  	89.396016 
1448.402285  	89.364167 
1449.839192  	89.365424 
1451.276099  	89.374430 
1452.713006  	89.369412 
1454.149913  	89.345194 
1455.586820  	89.310928 
1457.023727  	89.303861 
1458.460634  	89.257659 
1459.897541  	89.276743 
1461.334448  	89.288685 
1462.771355  	89.290114 
1464.208262  	89.263071 
1465.645169  	89.229239 
1467.082076  	89.237363 
1468.518984  	89.250422 
1469.955891  	89.246592 
1471.392798  	89.237829 
1472.829705  	89.183547 
1474.266612  	89.103991 
1475.703519  	89.120265 
1477.140426  	89.115496 
1478.577333  	89.127206 
1480.014240  	89.137964 
1481.451147  	89.099366 
1482.888054  	89.092991 
1484.324961  	89.076904 
1485.761868  	89.026133 
1487.198775  	89.004356 
1488.635682  	88.964525 
1490.072589  	88.911773 
1491.509496  	88.894666 
1492.946403  	88.861604 
1494.383310  	88.857335 
1495.820217  	88.822244 
1497.257124  	88.763250 
1498.694031  	88.745020 
1500.130938  	88.697839 
1501.567845  	88.650345 
1503.004752  	88.663966 
1504.441659  	88.632808 
1505.878566  	88.579517 
1507.315473  	88.476391 
1508.752380  	88.365525 
1510.189287  	88.397042 
1511.626194  	88.346587 
1513.063101  	88.302385 
1514.500008  	88.302601 
1515.936915  	88.231484 
1517.373822  	88.162505 
1518.810730  	88.149398 
1520.247637  	88.076092 
1521.684544  	88.045734 
1523.121451  	87.974586 
1524.558358  	87.900853 
1525.995265  	87.837460 
1527.432172  	87.771312 
1528.869079  	87.769530 
1530.305986  	87.731755 
1531.742893  	87.591015 
1533.179800  	87.504843 
1534.616707  	87.403611 
1536.053614  	87.298313 
1537.490521  	87.227111 
1538.927428  	87.142905 
1540.364335  	87.082232 
1541.801242  	86.914807 
1543.238149  	86.705744 
1544.675056  	86.615545 
1546.111963  	86.530496 
1547.548870  	86.435147 
1548.985777  	86.329985 
1550.422684  	86.159841 
1551.859591  	86.037601 
1553.296498  	85.937591 
1554.733405  	85.750712 
1556.170312  	85.614889 
1557.607219  	85.475312 
1559.044126  	85.302656 
1560.481033  	85.117191 
1561.917940  	84.971882 
1563.354847  	84.828091 
1564.791754  	84.745831 
1566.228661  	84.594087 
1567.665569  	84.485016 
1569.102476  	84.348147 
1570.539383  	84.092859 
1571.976290  	84.022983 
1573.413197  	83.698816 
1574.850104  	83.461185 
1576.287011  	83.284458 
1577.723918  	83.061030 
1579.160825  	82.886801 
1580.597732  	82.720267 
1582.034639  	82.489724 
1583.471546  	82.294413 
1584.908453  	82.061168 
1586.345360  	81.802521 
1587.782267  	81.586678 
1589.219174  	81.266316 
1590.656081  	80.978127 
1592.092988  	80.709339 
1593.529895  	80.329949 
1594.966802  	80.006553 
1596.403709  	79.702808 
1597.840616  	79.355675 
1599.277523  	79.054406 
1600.714430  	78.599198 
1602.151337  	78.133815 
1603.588244  	77.712792 
1605.025151  	77.200077 
1606.462058  	76.749343 
1607.898965  	76.305074 
1609.335872  	75.771220 
1610.772779  	75.301971 
1612.209686  	74.792715 
1613.646593  	74.255838 
1615.083500  	73.854077 
1616.520407  	73.313168 
1617.957315  	72.864876 
1619.394222  	72.437461 
1620.831129  	71.838175 
1622.268036  	71.465102 
1623.704943  	71.104637 
1625.141850  	70.604447 
1626.578757  	70.346159 
1628.015664  	70.016602 
1629.452571  	69.794439 
1630.889478  	69.671749 
1632.326385  	69.384989 
1633.763292  	69.236826 
1635.200199  	69.204412 
1636.637106  	69.253327 
1638.074013  	69.454602 
1639.510920  	69.408041 
1640.947827  	69.446848 
1642.384734  	69.700958 
1643.821641  	69.786248 
1645.258548  	69.975628 
1646.695455  	70.443575 
1648.132362  	70.825987 
1649.569269  	71.170091 
1651.006176  	71.253610 
1652.443083  	71.179143 
1653.879990  	72.405492 
1655.316897  	72.708569 
1656.753804  	72.942641 
1658.190711  	73.389257 
1659.627618  	73.778813 
1661.064525  	74.212300 
1662.501432  	74.683817 
1663.938339  	75.175958 
1665.375246  	75.676037 
1666.812154  	76.053234 
1668.249061  	76.468853 
1669.685968  	77.061454 
1671.122875  	77.517673 
1672.559782  	77.955846 
1673.996689  	78.383580 
1675.433596  	78.854940 
1676.870503  	79.478430 
1678.307410  	79.887620 
1679.744317  	80.304352 
1681.181224  	80.830792 
1682.618131  	81.152280 
1684.055038  	81.600490 
1685.491945  	82.313871 
1686.928852  	82.569617 
1688.365759  	82.967480 
1689.802666  	83.450573 
1691.239573  	83.846156 
1692.676480  	84.296277 
1694.113387  	84.610609 
1695.550294  	84.942044 
1696.987201  	85.441568 
1698.424108  	85.650359 
1699.861015  	85.860052 
1701.297922  	86.287950 
1702.734829  	86.558786 
1704.171736  	86.865734 
1705.608643  	87.186915 
1707.045550  	87.497443 
1708.482457  	87.830439 
1709.919364  	88.085370 
1711.356271  	88.359086 
1712.793178  	88.669629 
1714.230085  	88.916389 
1715.666992  	89.209614 
1717.103900  	89.483640 
1718.540807  	89.700072 
1719.977714  	90.002603 
1721.414621  	90.248350 
1722.851528  	90.497606 
1724.288435  	90.788603 
1725.725342  	91.012114 
1727.162249  	91.283759 
1728.599156  	91.426689 
1730.036063  	91.516086 
1731.472970  	91.710886 
1732.909877  	91.816797 
1734.346784  	91.829152 
1735.783691  	92.007822 
1737.220598  	92.162976 
1738.657505  	92.274383 
1740.094412  	92.407452 
1741.531319  	92.532354 
1742.968226  	92.701087 
1744.405133  	92.796760 
1745.842040  	92.899348 
1747.278947  	93.066104 
1748.715854  	93.129007 
1750.152761  	93.173648 
1751.589668  	93.305095 
1753.026575  	93.409273 
1754.463482  	93.572690 
1755.900389  	93.657055 
1757.337296  	93.682887 
1758.774203  	93.770684 
1760.211110  	93.851205 
1761.648017  	93.927633 
1763.084924  	93.995488 
1764.521831  	94.037662 
1765.958738  	94.132773 
1767.395646  	94.167468 
1768.832553  	94.160541 
1770.269460  	94.271640 
1771.706367  	94.333515 
1773.143274  	94.340631 
1774.580181  	94.422297 
1776.017088  	94.454460 
1777.453995  	94.495784 
1778.890902  	94.562089 
1780.327809  	94.570315 
1781.764716  	94.621144 
1783.201623  	94.673170 
1784.638530  	94.699849 
1786.075437  	94.759542 
1787.512344  	94.796756 
1788.949251  	94.836478 
1790.386158  	94.883404 
1791.823065  	94.872853 
1793.259972  	94.929524 
1794.696879  	94.966227 
1796.133786  	94.976977 
1797.570693  	95.003055 
1799.007600  	95.005790 
1800.444507  	95.021750 
1801.881414  	95.055643 
1803.318321  	95.071404 
1804.755228  	95.122435 
1806.192135  	95.148779 
1807.629042  	95.161484 
1809.065949  	95.218264 
1810.502856  	95.246965 
1811.939763  	95.267961 
1813.376670  	95.319440 
1814.813577  	95.358298 
1816.250485  	95.378708 
1817.687392  	95.368431 
1819.124299  	95.367762 
1820.561206  	95.393950 
1821.998113  	95.389464 
1823.435020  	95.420481 
1824.871927  	95.481397 
1826.308834  	95.455040 
1827.745741  	95.487201 
1829.182648  	95.510333 
1830.619555  	95.481194 
1832.056462  	95.511581 
1833.493369  	95.517742 
1834.930276  	95.516380 
1836.367183  	95.547335 
1837.804090  	95.556073 
1839.240997  	95.579473 
1840.677904  	95.614842 
1842.114811  	95.641045 
1843.551718  	95.729522 
1844.988625  	95.684394 
1846.425532  	95.609298 
1847.862439  	95.643244 
1849.299346  	95.655103 
1850.736253  	95.693227 
1852.173160  	95.722963 
1853.610067  	95.723835 
1855.046974  	95.769035 
1856.483881  	95.750683 
1857.920788  	95.721593 
1859.357695  	95.747610 
1860.794602  	95.722573 
1862.231509  	95.763267 
1863.668416  	95.837715 
1865.105323  	95.825300 
1866.542231  	95.837430 
1867.979138  	95.830943 
1869.416045  	95.817353 
1870.852952  	95.848054 
1872.289859  	95.825940 
1873.726766  	95.812744 
1875.163673  	95.842955 
1876.600580  	95.821477 
1878.037487  	95.846105 
1879.474394  	95.800748 
1880.911301  	95.779015 
1882.348208  	95.888264 
1883.785115  	95.876778 
1885.222022  	95.818673 
1886.658929  	95.827480 
1888.095836  	95.821844 
1889.532743  	95.840930 
1890.969650  	95.802850 
1892.406557  	95.789870 
1893.843464  	95.851129 
1895.280371  	95.810861 
1896.717278  	95.823492 
1898.154185  	95.885626 
1899.591092  	95.793895 
1901.027999  	95.821824 
1902.464906  	95.848038 
1903.901813  	95.826120 
1905.338720  	95.878519 
1906.775627  	95.847345 
1908.212534  	95.819429 
1909.649441  	95.897052 
1911.086348  	95.880563 
1912.523255  	95.912408 
1913.960162  	95.942940 
1915.397069  	95.842510 
1916.833977  	95.885527 
1918.270884  	95.886752 
1919.707791  	95.818840 
1921.144698  	95.861519 
1922.581605  	95.870937 
1924.018512  	95.888019 
1925.455419  	95.942786 
1926.892326  	95.919908 
1928.329233  	95.920104 
1929.766140  	95.878820 
1931.203047  	95.814592 
1932.639954  	95.806645 
1934.076861  	95.762365 
1935.513768  	95.821666 
1936.950675  	95.818672 
1938.387582  	95.659993 
1939.824489  	95.725761 
1941.261396  	95.821822 
1942.698303  	95.794171 
1944.135210  	95.799235 
1945.572117  	95.730035 
1947.009024  	95.660211 
1948.445931  	95.704290 
1949.882838  	95.690345 
1951.319745  	95.778990 
1952.756652  	95.983640 
1954.193559  	95.916843 
1955.630466  	95.827590 
1957.067373  	95.707794 
1958.504280  	95.847263 
1959.941187  	96.055938 
1961.378094  	95.945355 
1962.815001  	95.935360 
1964.251908  	95.881996 
1965.688816  	95.822262 
1967.125723  	96.043294 
1968.562630  	96.081057 
1969.999537  	96.124903 
1971.436444  	96.122447 
1972.873351  	95.773982 
1974.310258  	95.725707 
1975.747165  	95.719206 
1977.184072  	95.474661 
1978.620979  	95.489201 
1980.057886  	95.373463 
1981.494793  	95.232390 
1982.931700  	95.330360 
1984.368607  	95.344052 
1985.805514  	95.388329 
1987.242421  	95.390857 
1988.679328  	95.288362 
1990.116235  	95.294716 
1991.553142  	95.270661 
1992.990049  	95.272844 
1994.426956  	95.267744 
1995.863863  	95.056155 
1997.300770  	94.963569 
1998.737677  	95.234145 
2000.174584  	95.179500 
2001.611491  	95.275343 
2003.048398  	95.261918 
2004.485305  	95.338011 
2005.922212  	95.807512 
2007.359119  	95.485595 
2008.796026  	95.053150 
2010.232933  	95.265142 
2011.669840  	95.108002 
2013.106747  	94.845361 
2014.543654  	94.840826 
2015.980562  	94.899325 
2017.417469  	95.131925 
2018.854376  	95.146400 
2020.291283  	95.067798 
2021.728190  	94.959096 
2023.165097  	94.739129 
2024.602004  	94.731614 
2026.038911  	94.594160 
2027.475818  	94.544693 
2028.912725  	94.854662 
2030.349632  	94.762754 
2031.786539  	94.729279 
2033.223446  	94.783948 
2034.660353  	94.380919 
2036.097260  	94.341996 
2037.534167  	94.458381 
2038.971074  	94.405365 
2040.407981  	94.642341 
2041.844888  	94.596888 
2043.281795  	94.477660 
2044.718702  	94.595060 
2046.155609  	94.366461 
2047.592516  	94.204021 
2049.029423  	94.146933 
2050.466330  	93.939960 
2051.903237  	94.103149 
2053.340144  	94.315431 
2054.777051  	94.267669 
2056.213958  	94.217346 
2057.650865  	94.085043 
2059.087772  	94.029180 
2060.524679  	94.112182 
2061.961586  	94.152463 
2063.398493  	94.278138 
2064.835401  	94.317985 
2066.272308  	94.240022 
2067.709215  	94.190237 
2069.146122  	94.033791 
2070.583029  	93.980953 
2072.019936  	94.031863 
2073.456843  	93.944221 
2074.893750  	93.929799 
2076.330657  	93.916010 
2077.767564  	93.807247 
2079.204471  	93.807087 
2080.641378  	93.824736 
2082.078285  	93.836273 
2083.515192  	93.851184 
2084.952099  	93.816115 
2086.389006  	93.844604 
2087.825913  	93.847889 
2089.262820  	93.873570 
2090.699727  	93.992472 
2092.136634  	93.924300 
2093.573541  	93.851862 
2095.010448  	93.940765 
2096.447355  	93.896796 
2097.884262  	93.817644 
2099.321169  	93.805210 
2100.758076  	93.764744 
2102.194983  	93.735294 
2103.631890  	93.661750 
2105.068797  	93.640618 
2106.505704  	93.702264 
2107.942611  	93.659859 
2109.379518  	93.604719 
2110.816425  	93.574075 
2112.253332  	93.548509 
2113.690239  	93.613709 
2115.127147  	93.666664 
2116.564054  	93.683733 
2118.000961  	93.680301 
2119.437868  	93.657493 
2120.874775  	93.720173 
2122.311682  	93.721471 
2123.748589  	93.708478 
2125.185496  	93.857498 
2126.622403  	93.942261 
2128.059310  	94.051462 
2129.496217  	94.206328 
2130.933124  	94.114541 
2132.370031  	94.039873 
2133.806938  	93.943200 
2135.243845  	93.737084 
2136.680752  	93.843868 
2138.117659  	93.893547 
2139.554566  	93.809404 
2140.991473  	94.075739 
2142.428380  	94.174902 
2143.865287  	93.946453 
2145.302194  	93.811080 
2146.739101  	93.885999 
2148.176008  	94.209986 
2149.612915  	94.306243 
2151.049822  	94.119221 
2152.486729  	94.041847 
2153.923636  	93.968812 
2155.360543  	94.226481 
2156.797450  	94.535537 
2158.234357  	94.106335 
2159.671264  	93.620461 
2161.108171  	93.414632 
2162.545078  	93.492904 
2163.981985  	93.911548 
2165.418893  	93.847459 
2166.855800  	93.641878 
2168.292707  	93.744279 
2169.729614  	93.774502 
2171.166521  	93.969473 
2172.603428  	94.019500 
2174.040335  	93.709765 
2175.477242  	93.732404 
2176.914149  	93.869595 
2178.351056  	93.893357 
2179.787963  	94.059385 
2181.224870  	94.100613 
2182.661777  	94.092359 
2184.098684  	94.075567 
2185.535591  	93.976051 
2186.972498  	93.985390 
2188.409405  	93.904401 
2189.846312  	93.818781 
2191.283219  	93.909688 
2192.720126  	93.904391 
2194.157033  	93.905735 
2195.593940  	93.968827 
2197.030847  	94.006256 
2198.467754  	94.092511 
2199.904661  	94.016971 
2201.341568  	93.928772 
2202.778475  	93.986882 
2204.215382  	93.939353 
2205.652289  	93.983527 
2207.089196  	94.173985 
2208.526103  	94.322995 
2209.963010  	94.470278 
2211.399917  	94.374587 
2212.836824  	94.202331 
2214.273732  	94.265016 
2215.710639  	94.334380 
2217.147546  	94.421503 
2218.584453  	94.482028 
2220.021360  	94.374110 
2221.458267  	94.335583 
2222.895174  	94.339426 
2224.332081  	94.298309 
2225.768988  	94.249327 
2227.205895  	94.241654 
2228.642802  	94.454666 
2230.079709  	94.572601 
2231.516616  	94.429289 
2232.953523  	94.446803 
2234.390430  	94.499902 
2235.827337  	94.491837 
2237.264244  	94.584933 
2238.701151  	94.563291 
2240.138058  	94.503045 
2241.574965  	94.489067 
2243.011872  	94.453327 
2244.448779  	94.593585 
2245.885686  	94.728277 
2247.322593  	94.706937 
2248.759500  	94.728042 
2250.196407  	94.733161 
2251.633314  	94.781778 
2253.070221  	94.804582 
2254.507128  	94.663835 
2255.944035  	94.687608 
2257.380942  	94.799948 
2258.817849  	94.777926 
2260.254756  	94.816726 
2261.691663  	94.836022 
2263.128570  	94.841981 
2264.565478  	94.960383 
2266.002385  	94.995465 
2267.439292  	94.973677 
2268.876199  	94.990977 
2270.313106  	94.984024 
2271.750013  	94.960783 
2273.186920  	94.899023 
2274.623827  	94.878087 
2276.060734  	94.942376 
2277.497641  	94.988974 
2278.934548  	95.003191 
2280.371455  	94.938848 
2281.808362  	94.881738 
2283.245269  	94.935430 
2284.682176  	94.935486 
2286.119083  	94.909407 
2287.555990  	94.961847 
2288.992897  	95.019991 
2290.429804  	95.097011 
2291.866711  	95.126341 
2293.303618  	95.102022 
2294.740525  	95.159437 
2296.177432  	95.206529 
2297.614339  	95.208674 
2299.051246  	95.145898 
2300.488153  	95.190160 
2301.925060  	95.209173 
2303.361967  	95.259859 
2304.798874  	95.254161 
2306.235781  	95.259466 
2307.672688  	95.252505 
2309.109595  	95.248096 
2310.546502  	95.259026 
2311.983409  	95.191729 
2313.420317  	95.174483 
2314.857224  	95.226366 
2316.294131  	95.236530 
2317.731038  	95.265176 
2319.167945  	95.248195 
2320.604852  	95.193403 
2322.041759  	95.166327 
2323.478666  	95.082506 
2324.915573  	95.156663 
2326.352480  	95.387306 
2327.789387  	95.477040 
2329.226294  	95.523854 
2330.663201  	95.577291 
2332.100108  	95.531354 
2333.537015  	95.537568 
2334.973922  	95.579892 
2336.410829  	95.622989 
2337.847736  	95.685117 
2339.284643  	95.647748 
2340.721550  	95.596965 
2342.158457  	95.572405 
2343.595364  	95.519169 
2345.032271  	95.555037 
2346.469178  	95.631798 
2347.906085  	95.688527 
2349.342992  	95.746843 
2350.779899  	95.778031 
2352.216806  	95.854335 
2353.653713  	95.935965 
2355.090620  	95.874049 
2356.527527  	95.833956 
2357.964434  	95.863606 
2359.401341  	95.883371 
2360.838248  	95.941304 
2362.275155  	95.942436 
2363.712063  	95.967034 
2365.148970  	96.043711 
2366.585877  	96.059586 
2368.022784  	96.110276 
2369.459691  	96.129042 
2370.896598  	96.086904 
2372.333505  	96.067289 
2373.770412  	96.016146 
2375.207319  	96.002819 
2376.644226  	96.035958 
2378.081133  	96.026598 
2379.518040  	96.039178 
2380.954947  	96.055897 
2382.391854  	96.067195 
2383.828761  	96.129403 
2385.265668  	96.171122 
2386.702575  	96.176532 
2388.139482  	96.161752 
2389.576389  	96.102191 
2391.013296  	96.104037 
2392.450203  	96.172332 
2393.887110  	96.186181 
2395.324017  	96.181489 
2396.760924  	96.214300 
2398.197831  	96.244082 
2399.634738  	96.209368 
2401.071645  	96.161938 
2402.508552  	96.209404 
2403.945459  	96.256606 
2405.382366  	96.238963 
2406.819273  	96.248149 
2408.256180  	96.265308 
2409.693087  	96.284763 
2411.129994  	96.298913 
2412.566901  	96.269047 
2414.003809  	96.284556 
2415.440716  	96.299868 
2416.877623  	96.233231 
2418.314530  	96.201887 
2419.751437  	96.234416 
2421.188344  	96.295028 
2422.625251  	96.335947 
2424.062158  	96.295419 
2425.499065  	96.276099 
2426.935972  	96.289113 
2428.372879  	96.273018 
2429.809786  	96.298837 
2431.246693  	96.324210 
2432.683600  	96.318596 
2434.120507  	96.320626 
2435.557414  	96.288386 
2436.994321  	96.285487 
2438.431228  	96.323938 
2439.868135  	96.347956 
2441.305042  	96.410270 
2442.741949  	96.433550 
2444.178856  	96.399782 
2445.615763  	96.398108 
2447.052670  	96.362251 
2448.489577  	96.369605 
2449.926484  	96.478780 
2451.363391  	96.506282 
2452.800298  	96.474882 
2454.237205  	96.489911 
2455.674112  	96.500971 
2457.111019  	96.477740 
2458.547926  	96.429772 
2459.984833  	96.420205 
2461.421740  	96.469342 
2462.858648  	96.524532 
2464.295555  	96.558319 
2465.732462  	96.514252 
2467.169369  	96.472828 
2468.606276  	96.517861 
2470.043183  	96.518749 
2471.480090  	96.527793 
2472.916997  	96.608359 
2474.353904  	96.590626 
2475.790811  	96.532855 
2477.227718  	96.540545 
2478.664625  	96.543045 
2480.101532  	96.553042 
2481.538439  	96.573640 
2482.975346  	96.600840 
2484.412253  	96.616499 
2485.849160  	96.566957 
2487.286067  	96.570813 
2488.722974  	96.617385 
2490.159881  	96.564801 
2491.596788  	96.542263 
2493.033695  	96.591319 
2494.470602  	96.593552 
2495.907509  	96.604761 
2497.344416  	96.642641 
2498.781323  	96.649661 
2500.218230  	96.627015 
2501.655137  	96.600646 
2503.092044  	96.625006 
2504.528951  	96.668213 
2505.965858  	96.679130 
2507.402765  	96.694601 
2508.839672  	96.693157 
2510.276579  	96.679793 
2511.713486  	96.704124 
2513.150394  	96.709351 
2514.587301  	96.679763 
2516.024208  	96.678793 
2517.461115  	96.687957 
2518.898022  	96.665484 
2520.334929  	96.649659 
2521.771836  	96.682034 
2523.208743  	96.733036 
2524.645650  	96.748619 
2526.082557  	96.701008 
2527.519464  	96.659453 
2528.956371  	96.710484 
2530.393278  	96.739196 
2531.830185  	96.684521 
2533.267092  	96.697407 
2534.703999  	96.746368 
2536.140906  	96.725305 
2537.577813  	96.701058 
2539.014720  	96.701037 
2540.451627  	96.716957 
2541.888534  	96.721454 
2543.325441  	96.687993 
2544.762348  	96.690954 
2546.199255  	96.704449 
2547.636162  	96.707121 
2549.073069  	96.766378 
2550.509976  	96.763577 
2551.946883  	96.681807 
2553.383790  	96.688584 
2554.820697  	96.731678 
2556.257604  	96.716997 
2557.694511  	96.693687 
2559.131418  	96.714235 
2560.568325  	96.752838 
2562.005232  	96.732503 
2563.442140  	96.728811 
2564.879047  	96.775403 
2566.315954  	96.731403 
2567.752861  	96.681256 
2569.189768  	96.722391 
2570.626675  	96.735164 
2572.063582  	96.722140 
2573.500489  	96.719590 
2574.937396  	96.724843 
2576.374303  	96.762232 
2577.811210  	96.764507 
2579.248117  	96.740162 
2580.685024  	96.732555 
2582.121931  	96.711052 
2583.558838  	96.734282 
2584.995745  	96.778784 
2586.432652  	96.760944 
2587.869559  	96.729600 
2589.306466  	96.707354 
2590.743373  	96.722137 
2592.180280  	96.758167 
2593.617187  	96.726172 
2595.054094  	96.714283 
2596.491001  	96.757341 
2597.927908  	96.748905 
2599.364815  	96.725722 
2600.801722  	96.719684 
2602.238629  	96.725482 
2603.675536  	96.762294 
2605.112443  	96.764981 
2606.549350  	96.739611 
2607.986257  	96.741234 
2609.423164  	96.747815 
2610.860071  	96.753980 
2612.296979  	96.744152 
2613.733886  	96.728823 
2615.170793  	96.738757 
2616.607700  	96.742690 
2618.044607  	96.761899 
2619.481514  	96.798216 
2620.918421  	96.794984 
2622.355328  	96.770445 
2623.792235  	96.736777 
2625.229142  	96.725376 
2626.666049  	96.752760 
2628.102956  	96.739570 
2629.539863  	96.739947 
2630.976770  	96.797209 
2632.413677  	96.778758 
2633.850584  	96.718833 
2635.287491  	96.723636 
2636.724398  	96.741693 
2638.161305  	96.755129 
2639.598212  	96.763835 
2641.035119  	96.731616 
2642.472026  	96.705233 
2643.908933  	96.733564 
2645.345840  	96.760691 
2646.782747  	96.744398 
2648.219654  	96.747542 
2649.656561  	96.775856 
2651.093468  	96.754593 
2652.530375  	96.722132 
2653.967282  	96.722051 
2655.404189  	96.716632 
2656.841096  	96.720910 
2658.278003  	96.733619 
2659.714910  	96.734576 
2661.151817  	96.742813 
2662.588725  	96.739459 
2664.025632  	96.742695 
2665.462539  	96.772540 
2666.899446  	96.771713 
2668.336353  	96.762934 
2669.773260  	96.778953 
2671.210167  	96.776234 
2672.647074  	96.762404 
2674.083981  	96.746425 
2675.520888  	96.731978 
2676.957795  	96.739445 
2678.394702  	96.730805 
2679.831609  	96.708752 
2681.268516  	96.710279 
2682.705423  	96.717056 
2684.142330  	96.729441 
2685.579237  	96.737025 
2687.016144  	96.722538 
2688.453051  	96.717289 
2689.889958  	96.718330 
2691.326865  	96.709945 
2692.763772  	96.701111 
2694.200679  	96.695496 
2695.637586  	96.703781 
2697.074493  	96.707532 
2698.511400  	96.700047 
2699.948307  	96.705289 
2701.385214  	96.696459 
2702.822121  	96.673274 
2704.259028  	96.669146 
2705.695935  	96.667850 
2707.132842  	96.662386 
2708.569749  	96.652604 
2710.006656  	96.641855 
2711.443564  	96.642615 
2712.880471  	96.627283 
2714.317378  	96.617308 
2715.754285  	96.648244 
2717.191192  	96.662379 
2718.628099  	96.639700 
2720.065006  	96.613219 
2721.501913  	96.602992 
2722.938820  	96.623807 
2724.375727  	96.623333 
2725.812634  	96.586024 
2727.249541  	96.581514 
2728.686448  	96.586452 
2730.123355  	96.564790 
2731.560262  	96.566365 
2732.997169  	96.581100 
2734.434076  	96.559557 
2735.870983  	96.524531 
2737.307890  	96.516954 
2738.744797  	96.522809 
2740.181704  	96.516691 
2741.618611  	96.509831 
2743.055518  	96.505950 
2744.492425  	96.499474 
2745.929332  	96.494198 
2747.366239  	96.483824 
2748.803146  	96.474107 
2750.240053  	96.455073 
2751.676960  	96.422517 
2753.113867  	96.423348 
2754.550774  	96.427217 
2755.987681  	96.386892 
2757.424588  	96.371346 
2758.861495  	96.385937 
2760.298402  	96.373607 
2761.735310  	96.360683 
2763.172217  	96.356022 
2764.609124  	96.340532 
2766.046031  	96.327128 
2767.482938  	96.312145 
2768.919845  	96.284755 
2770.356752  	96.254826 
2771.793659  	96.249337 
2773.230566  	96.261270 
2774.667473  	96.244086 
2776.104380  	96.217577 
2777.541287  	96.217964 
2778.978194  	96.210910 
2780.415101  	96.180519 
2781.852008  	96.156048 
2783.288915  	96.153450 
2784.725822  	96.143833 
2786.162729  	96.113670 
2787.599636  	96.112449 
2789.036543  	96.111409 
2790.473450  	96.052195 
2791.910357  	96.009839 
2793.347264  	96.015856 
2794.784171  	96.008292 
2796.221078  	95.983848 
2797.657985  	95.960354 
2799.094892  	95.953284 
2800.531799  	95.950499 
2801.968706  	95.919741 
2803.405613  	95.895946 
2804.842520  	95.877994 
2806.279427  	95.840481 
2807.716334  	95.825570 
2809.153241  	95.812433 
2810.590148  	95.773215 
2812.027056  	95.744648 
2813.463963  	95.720560 
2814.900870  	95.707829 
2816.337777  	95.704943 
2817.774684  	95.675089 
2819.211591  	95.648381 
2820.648498  	95.625073 
2822.085405  	95.584305 
2823.522312  	95.563365 
2824.959219  	95.539876 
2826.396126  	95.497410 
2827.833033  	95.470942 
2829.269940  	95.442064 
2830.706847  	95.406868 
2832.143754  	95.376497 
2833.580661  	95.345532 
2835.017568  	95.332007 
2836.454475  	95.312809 
2837.891382  	95.275703 
2839.328289  	95.258065 
2840.765196  	95.243706 
2842.202103  	95.213143 
2843.639010  	95.172457 
2845.075917  	95.122191 
2846.512824  	95.087237 
2847.949731  	95.058655 
2849.386638  	95.010527 
2850.823545  	94.963925 
2852.260452  	94.929849 
2853.697359  	94.905168 
2855.134266  	94.877839 
2856.571173  	94.834586 
2858.008080  	94.801815 
2859.444987  	94.784357 
2860.881895  	94.752419 
2862.318802  	94.697144 
2863.755709  	94.638832 
2865.192616  	94.602700 
2866.629523  	94.560466 
2868.066430  	94.504731 
2869.503337  	94.480353 
2870.940244  	94.448707 
2872.377151  	94.394815 
2873.814058  	94.377361 
2875.250965  	94.355753 
2876.687872  	94.307738 
2878.124779  	94.272133 
2879.561686  	94.210445 
2880.998593  	94.130503 
2882.435500  	94.084689 
2883.872407  	94.047401 
2885.309314  	94.006884 
2886.746221  	93.969843 
2888.183128  	93.912379 
2889.620035  	93.837426 
2891.056942  	93.777425 
2892.493849  	93.739690 
2893.930756  	93.695702 
2895.367663  	93.647647 
2896.804570  	93.608527 
2898.241477  	93.548062 
2899.678384  	93.482988 
2901.115291  	93.434097 
2902.552198  	93.371224 
2903.989105  	93.313536 
2905.426012  	93.250001 
2906.862919  	93.153618 
2908.299826  	93.082234 
2909.736733  	93.020423 
2911.173641  	92.933635 
2912.610548  	92.869271 
2914.047455  	92.798147 
2915.484362  	92.700131 
2916.921269  	92.622239 
2918.358176  	92.551673 
2919.795083  	92.477100 
2921.231990  	92.395580 
2922.668897  	92.318378 
2924.105804  	92.285319 
2925.542711  	92.242026 
2926.979618  	92.161419 
2928.416525  	92.096312 
2929.853432  	92.018705 
2931.290339  	91.924152 
2932.727246  	91.843361 
2934.164153  	91.757332 
2935.601060  	91.681055 
2937.037967  	91.613709 
2938.474874  	91.547282 
2939.911781  	91.497543 
2941.348688  	91.418638 
2942.785595  	91.320710 
2944.222502  	91.247570 
2945.659409  	91.151088 
2947.096316  	91.037609 
2948.533223  	90.949096 
2949.970130  	90.869974 
2951.407037  	90.790993 
2952.843944  	90.692458 
2954.280851  	90.586184 
2955.717758  	90.496164 
2957.154665  	90.396577 
2958.591572  	90.310232 
2960.028479  	90.234394 
2961.465387  	90.129870 
2962.902294  	90.045771 
2964.339201  	89.965770 
2965.776108  	89.832514 
2967.213015  	89.703251 
2968.649922  	89.605703 
2970.086829  	89.512120 
2971.523736  	89.409394 
2972.960643  	89.275523 
2974.397550  	89.126727 
2975.834457  	89.000574 
2977.271364  	88.895698 
2978.708271  	88.782176 
2980.145178  	88.663996 
2981.582085  	88.582805 
2983.018992  	88.491470 
2984.455899  	88.344202 
2985.892806  	88.194460 
2987.329713  	88.043922 
2988.766620  	87.907352 
2990.203527  	87.806751 
2991.640434  	87.665201 
2993.077341  	87.512599 
2994.514248  	87.393384 
2995.951155  	87.238026 
2997.388062  	87.090606 
2998.824969  	86.972988 
3000.261876  	86.810789 
3001.698783  	86.641137 
3003.135690  	86.508443 
3004.572597  	86.393303 
3006.009504  	86.247416 
3007.446411  	86.054321 
3008.883318  	85.894177 
3010.320226  	85.753351 
3011.757133  	85.585327 
3013.194040  	85.428971 
3014.630947  	85.242377 
3016.067854  	85.055442 
3017.504761  	84.917529 
3018.941668  	84.727137 
3020.378575  	84.521067 
3021.815482  	84.349630 
3023.252389  	84.171538 
3024.689296  	84.049396 
3026.126203  	83.910744 
3027.563110  	83.695133 
3029.000017  	83.528797 
3030.436924  	83.364679 
3031.873831  	83.152632 
3033.310738  	82.947954 
3034.747645  	82.734818 
3036.184552  	82.558848 
3037.621459  	82.382349 
3039.058366  	82.152669 
3040.495273  	81.970587 
3041.932180  	81.779018 
3043.369087  	81.529343 
3044.805994  	81.312051 
3046.242901  	81.101924 
3047.679808  	80.906439 
3049.116715  	80.719539 
3050.553622  	80.482709 
3051.990529  	80.258548 
3053.427436  	80.043349 
3054.864343  	79.830995 
3056.301250  	79.648691 
3057.738157  	79.416843 
3059.175064  	79.167677 
3060.611972  	78.932071 
3062.048879  	78.679271 
3063.485786  	78.470345 
3064.922693  	78.238328 
3066.359600  	77.964615 
3067.796507  	77.732734 
3069.233414  	77.462293 
3070.670321  	77.203368 
3072.107228  	77.007546 
3073.544135  	76.758141 
3074.981042  	76.491591 
3076.417949  	76.215246 
3077.854856  	75.933390 
3079.291763  	75.727362 
3080.728670  	75.476136 
3082.165577  	75.171102 
3083.602484  	74.913586 
3085.039391  	74.645935 
3086.476298  	74.391662 
3087.913205  	74.133885 
3089.350112  	73.837498 
3090.787019  	73.573201 
3092.223926  	73.292329 
3093.660833  	73.013320 
3095.097740  	72.762945 
3096.534647  	72.471123 
3097.971554  	72.204394 
3099.408461  	71.911891 
3100.845368  	71.579612 
3102.282275  	71.342908 
3103.719182  	71.061907 
3105.156089  	70.716735 
3106.592996  	70.427127 
3108.029903  	70.116474 
3109.466811  	69.837880 
3110.903718  	69.573781 
3112.340625  	69.264763 
3113.777532  	69.011149 
3115.214439  	68.698079 
3116.651346  	68.342413 
3118.088253  	68.075453 
3119.525160  	67.766795 
3120.962067  	67.462431 
3122.398974  	67.171909 
3123.835881  	66.839151 
3125.272788  	66.600179 
3126.709695  	66.317616 
3128.146602  	65.964839 
3129.583509  	65.686785 
3131.020416  	65.349063 
3132.457323  	65.044282 
3133.894230  	64.799022 
3135.331137  	64.450943 
3136.768044  	64.158024 
3138.204951  	63.849348 
3139.641858  	63.484315 
3141.078765  	63.259708 
3142.515672  	62.996029 
3143.952579  	62.685794 
3145.389486  	62.420097 
3146.826393  	62.073678 
3148.263300  	61.789856 
3149.700207  	61.523469 
3151.137114  	61.174796 
3152.574021  	60.892649 
3154.010928  	60.568056 
3155.447835  	60.276381 
3156.884742  	60.081558 
3158.321649  	59.761034 
3159.758557  	59.473013 
3161.195464  	59.214539 
3162.632371  	58.867328 
3164.069278  	58.637061 
3165.506185  	58.397913 
3166.943092  	58.092229 
3168.379999  	57.816146 
3169.816906  	57.495281 
3171.253813  	57.309837 
3172.690720  	57.139516 
3174.127627  	56.815029 
3175.564534  	56.591513 
3177.001441  	56.319138 
3178.438348  	55.992905 
3179.875255  	55.806056 
3181.312162  	55.526774 
3182.749069  	55.293871 
3184.185976  	55.144635 
3185.622883  	54.849446 
3187.059790  	54.633931 
3188.496697  	54.437400 
3189.933604  	54.178916 
3191.370511  	54.011716 
3192.807418  	53.761368 
3194.244325  	53.544912 
3195.681232  	53.410232 
3197.118139  	53.169955 
3198.555046  	53.019633 
3199.991953  	52.830626 
3201.428860  	52.555022 
3202.865767  	52.439680 
3204.302674  	52.256065 
3205.739581  	52.058008 
3207.176488  	51.938618 
3208.613395  	51.706784 
3210.050303  	51.581448 
3211.487210  	51.460661 
3212.924117  	51.225239 
3214.361024  	51.134807 
3215.797931  	50.985705 
3217.234838  	50.815725 
3218.671745  	50.770640 
3220.108652  	50.629423 
3221.545559  	50.545098 
3222.982466  	50.453773 
3224.419373  	50.253562 
3225.856280  	50.201617 
3227.293187  	50.109285 
3228.730094  	49.989514 
3230.167001  	49.957489 
3231.603908  	49.790113 
3233.040815  	49.701486 
3234.477722  	49.653700 
3235.914629  	49.498942 
3237.351536  	49.511999 
3238.788443  	49.479745 
3240.225350  	49.355053 
3241.662257  	49.315437 
3243.099164  	49.186124 
3244.536071  	49.171100 
3245.972978  	49.206251 
3247.409885  	49.073261 
3248.846792  	49.064360 
3250.283699  	49.005686 
3251.720606  	48.886208 
3253.157513  	48.945189 
3254.594420  	48.891347 
3256.031327  	48.839827 
3257.468234  	48.868691 
3258.905142  	48.783163 
3260.342049  	48.797049 
3261.778956  	48.758583 
3263.215863  	48.661075 
3264.652770  	48.735054 
3266.089677  	48.688733 
3267.526584  	48.657812 
3268.963491  	48.714608 
3270.400398  	48.596229 
3271.837305  	48.584219 
3273.274212  	48.596746 
3274.711119  	48.526881 
3276.148026  	48.618341 
3277.584933  	48.596352 
3279.021840  	48.544591 
3280.458747  	48.610824 
3281.895654  	48.541542 
3283.332561  	48.559026 
3284.769468  	48.593077 
3286.206375  	48.499886 
3287.643282  	48.545645 
3289.080189  	48.504261 
3290.517096  	48.406564 
3291.954003  	48.459274 
3293.390910  	48.423328 
3294.827817  	48.417177 
3296.264724  	48.433021 
3297.701631  	48.398770 
3299.138538  	48.494378 
3300.575445  	48.468174 
3302.012352  	48.397593 
3303.449259  	48.450553 
3304.886166  	48.355541 
3306.323073  	48.318400 
3307.759980  	48.363619 
3309.196888  	48.327202 
3310.633795  	48.390175 
3312.070702  	48.354454 
3313.507609  	48.301055 
3314.944516  	48.393547 
3316.381423  	48.342808 
3317.818330  	48.359970 
3319.255237  	48.419448 
3320.692144  	48.323313 
3322.129051  	48.384747 
3323.565958  	48.387574 
3325.002865  	48.289088 
3326.439772  	48.361870 
3327.876679  	48.329955 
3329.313586  	48.342519 
3330.750493  	48.440960 
3332.187400  	48.346910 
3333.624307  	48.361950 
3335.061214  	48.403696 
3336.498121  	48.340711 
3337.935028  	48.393460 
3339.371935  	48.365216 
3340.808842  	48.376233 
3342.245749  	48.489070 
3343.682656  	48.456615 
3345.119563  	48.500060 
3346.556470  	48.537331 
3347.993377  	48.511383 
3349.430284  	48.624303 
3350.867191  	48.611472 
3352.304098  	48.594352 
3353.741005  	48.673432 
3355.177912  	48.621357 
3356.614819  	48.714778 
3358.051726  	48.818929 
3359.488634  	48.778656 
3360.925541  	48.898168 
3362.362448  	48.945757 
3363.799355  	48.964954 
3365.236262  	49.106092 
3366.673169  	49.096619 
3368.110076  	49.142807 
3369.546983  	49.231341 
3370.983890  	49.258015 
3372.420797  	49.442731 
3373.857704  	49.515716 
3375.294611  	49.541739 
3376.731518  	49.693256 
3378.168425  	49.692178 
3379.605332  	49.785666 
3381.042239  	49.950442 
3382.479146  	49.982735 
3383.916053  	50.180753 
3385.352960  	50.313462 
3386.789867  	50.329674 
3388.226774  	50.480472 
3389.663681  	50.507593 
3391.100588  	50.572219 
3392.537495  	50.776193 
3393.974402  	50.895802 
3395.411309  	51.091242 
3396.848216  	51.264077 
3398.285123  	51.378466 
3399.722030  	51.525121 
3401.158937  	51.570350 
3402.595844  	51.765636 
3404.032751  	52.020557 
3405.469658  	52.111546 
3406.906565  	52.341731 
3408.343473  	52.497667 
3409.780380  	52.524457 
3411.217287  	52.721416 
3412.654194  	52.885003 
3414.091101  	53.117339 
3415.528008  	53.392963 
3416.964915  	53.478797 
3418.401822  	53.685427 
3419.838729  	53.895568 
3421.275636  	54.005745 
3422.712543  	54.267384 
3424.149450  	54.434811 
3425.586357  	54.610097 
3427.023264  	54.875251 
3428.460171  	54.968984 
3429.897078  	55.142266 
3431.333985  	55.383028 
3432.770892  	55.575891 
3434.207799  	55.855198 
3435.644706  	55.981256 
3437.081613  	56.113810 
3438.518520  	56.424107 
3439.955427  	56.622233 
3441.392334  	56.866437 
3442.829241  	57.141313 
3444.266148  	57.303700 
3445.703055  	57.564459 
3447.139962  	57.785930 
3448.576869  	57.957388 
3450.013776  	58.172917 
3451.450683  	58.307760 
3452.887590  	58.537698 
3454.324497  	58.803293 
3455.761404  	59.012212 
3457.198311  	59.297014 
3458.635219  	59.470855 
3460.072126  	59.650801 
3461.509033  	59.935868 
3462.945940  	60.088946 
3464.382847  	60.299426 
3465.819754  	60.526407 
3467.256661  	60.641895 
3468.693568  	60.860928 
3470.130475  	61.081369 
3471.567382  	61.354849 
3473.004289  	61.670110 
3474.441196  	61.809328 
3475.878103  	62.070016 
3477.315010  	62.351080 
3478.751917  	62.432421 
3480.188824  	62.669424 
3481.625731  	62.969179 
3483.062638  	63.195534 
3484.499545  	63.419319 
3485.936452  	63.532099 
3487.373359  	63.764628 
3488.810266  	64.053981 
3490.247173  	64.187860 
3491.684080  	64.415334 
3493.120987  	64.637281 
3494.557894  	64.859548 
3495.994801  	65.197273 
3497.431708  	65.397713 
3498.868615  	65.596906 
3500.305522  	65.811414 
3501.742429  	65.952598 
3503.179336  	66.302795 
3504.616243  	66.592513 
3506.053150  	66.712367 
3507.490058  	66.954703 
3508.926965  	67.158058 
3510.363872  	67.421806 
3511.800779  	67.707128 
3513.237686  	67.810605 
3514.674593  	68.029665 
3516.111500  	68.251922 
3517.548407  	68.415757 
3518.985314  	68.751524 
3520.422221  	68.961175 
3521.859128  	69.129237 
3523.296035  	69.442788 
3524.732942  	69.604808 
3526.169849  	69.810650 
3527.606756  	70.117243 
3529.043663  	70.337532 
3530.480570  	70.606535 
3531.917477  	70.821093 
3533.354384  	71.022371 
3534.791291  	71.282291 
3536.228198  	71.441944 
3537.665105  	71.660305 
3539.102012  	71.906449 
3540.538919  	72.071084 
3541.975826  	72.341728 
3543.412733  	72.574227 
3544.849640  	72.722014 
3546.286547  	72.963504 
3547.723454  	73.223488 
3549.160361  	73.519850 
3550.597268  	73.742374 
3552.034175  	73.872758 
3553.471082  	74.088433 
3554.907989  	74.277247 
3556.344896  	74.535414 
3557.781804  	74.878700 
3559.218711  	75.040323 
3560.655618  	75.214659 
3562.092525  	75.471143 
3563.529432  	75.652016 
3564.966339  	75.879833 
3566.403246  	76.084162 
3567.840153  	76.353668 
3569.277060  	76.666834 
3570.713967  	76.741699 
3572.150874  	76.903519 
3573.587781  	77.187025 
3575.024688  	77.388580 
3576.461595  	77.618048 
3577.898502  	77.786475 
3579.335409  	77.930864 
3580.772316  	78.209497 
3582.209223  	78.418739 
3583.646130  	78.629051 
3585.083037  	78.856714 
3586.519944  	78.974750 
3587.956851  	79.282230 
3589.393758  	79.586876 
3590.830665  	79.687633 
3592.267572  	79.896254 
3593.704479  	80.124445 
3595.141386  	80.295693 
3596.578293  	80.390233 
3598.015200  	80.466123 
3599.452107  	80.745729 
3600.889014  	81.042606 
3602.325921  	81.216603 
3603.762828  	81.442097 
3605.199735  	81.607717 
3606.636642  	81.767832 
3608.073550  	82.060168 
3609.510457  	82.317633 
3610.947364  	82.529787 
3612.384271  	82.762490 
3613.821178  	83.013001 
3615.258085  	83.175755 
3616.694992  	83.196316 
3618.131899  	83.331788 
3619.568806  	83.596560 
3621.005713  	83.725172 
3622.442620  	83.935289 
3623.879527  	84.174415 
3625.316434  	84.414581 
3626.753341  	84.746489 
3628.190248  	84.976749 
3629.627155  	85.140662 
3631.064062  	85.313557 
3632.500969  	85.499470 
3633.937876  	85.712052 
3635.374783  	85.867595 
3636.811690  	86.034673 
3638.248597  	86.339630 
3639.685504  	86.665441 
3641.122411  	86.986026 
3642.559318  	87.194065 
3643.996225  	87.265002 
3645.433132  	87.576776 
3646.870039  	87.944127 
3648.306946  	88.040280 
3649.743853  	88.305973 
3651.180760  	88.600900 
3652.617667  	88.712476 
3654.054574  	89.010287 
3655.491481  	89.286698 
3656.928389  	89.525900 
3658.365296  	89.726500 
3659.802203  	89.996029 
3661.239110  	90.350079 
3662.676017  	90.549859 
3664.112924  	90.714533 
3665.549831  	90.975429 
3666.986738  	91.210443 
3668.423645  	91.494146 
3669.860552  	91.824491 
3671.297459  	92.013389 
3672.734366  	92.232189 
3674.171273  	92.525660 
3675.608180  	92.777213 
3677.045087  	92.831211 
3678.481994  	92.976215 
3679.918901  	93.186758 
3681.355808  	93.422055 
3682.792715  	93.676560 
3684.229622  	93.849831 
3685.666529  	93.983147 
3687.103436  	94.140089 
3688.540343  	94.332160 
3689.977250  	94.429216 
3691.414157  	94.488309 
3692.851064  	94.539268 
3694.287971  	94.658616 
3695.724878  	94.851172 
3697.161785  	94.997205 
3698.598692  	95.096898 
3700.035599  	95.211588 
3701.472506  	95.314478 
3702.909413  	95.444034 
3704.346320  	95.437188 
3705.783227  	95.404646 
3707.220135  	95.579517 
3708.657042  	95.796095 
3710.093949  	95.886200 
3711.530856  	95.826102 
3712.967763  	95.605640 
3714.404670  	95.692123 
3715.841577  	95.950591 
3717.278484  	96.051414 
3718.715391  	96.073519 
3720.152298  	96.120131 
3721.589205  	96.184775 
3723.026112  	96.180903 
3724.463019  	96.150677 
3725.899926  	96.206159 
3727.336833  	96.205019 
3728.773740  	96.222240 
3730.210647  	96.396664 
3731.647554  	96.478546 
3733.084461  	96.485268 
3734.521368  	96.576854 
3735.958275  	96.584435 
3737.395182  	96.386308 
3738.832089  	96.396568 
3740.268996  	96.467883 
3741.705903  	96.557196 
3743.142810  	96.649274 
3744.579717  	96.649391 
3746.016624  	96.480208 
3747.453531  	96.555048 
3748.890438  	96.679613 
3750.327345  	96.717917 
3751.764252  	96.640830 
3753.201159  	96.541869 
3754.638066  	96.562944 
3756.074973  	96.663961 
3757.511881  	96.727309 
3758.948788  	96.744504 
3760.385695  	96.775996 
3761.822602  	96.724064 
3763.259509  	96.751963 
3764.696416  	96.819346 
3766.133323  	96.781842 
3767.570230  	96.734481 
3769.007137  	96.764026 
3770.444044  	96.730534 
3771.880951  	96.736972 
3773.317858  	96.771126 
3774.754765  	96.744456 
3776.191672  	96.781756 
3777.628579  	96.903084 
3779.065486  	96.921185 
3780.502393  	96.802974 
3781.939300  	96.780568 
3783.376207  	96.876187 
3784.813114  	96.895264 
3786.250021  	96.838929 
3787.686928  	96.817485 
3789.123835  	96.759129 
3790.560742  	96.806220 
3791.997649  	96.518946 
3793.434556  	96.941714 
3794.871463  	96.903797 
3796.308370  	96.994564 
3797.745277  	96.916034 
3799.182184  	96.895073 
3800.619091  	97.017569 
3802.055998  	96.941170 
3803.492905  	96.715131 
3804.929812  	96.848663 
3806.366720  	96.960366 
3807.803627  	96.759438 
3809.240534  	96.645093 
3810.677441  	96.824202 
3812.114348  	96.866426 
3813.551255  	96.903450 
3814.988162  	97.045362 
3816.425069  	97.015266 
3817.861976  	96.848328 
3819.298883  	96.969603 
3820.735790  	97.028978 
3822.172697  	96.821229 
3823.609604  	96.783395 
3825.046511  	96.928104 
3826.483418  	96.992351 
3827.920325  	96.973628 
3829.357232  	97.030856 
3830.794139  	97.085146 
3832.231046  	97.023975 
3833.667953  	97.036826 
3835.104860  	97.142534 
3836.541767  	97.172459 
3837.978674  	97.165803 
3839.415581  	97.078644 
3840.852488  	96.966863 
3842.289395  	97.005092 
3843.726302  	97.057223 
3845.163209  	97.027906 
3846.600116  	97.030617 
3848.037023  	97.122187 
3849.473930  	97.236092 
3850.910837  	97.279433 
3852.347744  	97.318334 
3853.784651  	97.358725 
3855.221558  	96.950661 
3856.658466  	96.855393 
3858.095373  	96.895127 
3859.532280  	96.996326 
3860.969187  	97.121860 
3862.406094  	97.158757 
3863.843001  	97.191957 
3865.279908  	97.188237 
3866.716815  	97.059691 
3868.153722  	97.168219 
3869.590629  	97.257858 
3871.027536  	96.901169 
3872.464443  	96.860560 
3873.901350  	96.996253 
3875.338257  	96.965159 
3876.775164  	97.029721 
3878.212071  	97.125825 
3879.648978  	97.179310 
3881.085885  	97.154401 
3882.522792  	96.989269 
3883.959699  	97.122771 
3885.396606  	97.302625 
3886.833513  	97.022105 
3888.270420  	96.950888 
3889.707327  	97.110068 
3891.144234  	97.076662 
3892.581141  	96.997702 
3894.018048  	96.998298 
3895.454955  	97.055205 
3896.891862  	97.178846 
3898.328769  	97.227617 
3899.765676  	97.199260 
3901.202583  	97.155042 
3902.639490  	97.106774 
3904.076397  	97.051197 
3905.513305  	96.907011 
3906.950212  	96.889401 
3908.387119  	96.985920 
3909.824026  	97.032008 
3911.260933  	97.091659 
3912.697840  	97.108560 
3914.134747  	97.102295 
3915.571654  	97.115186 
3917.008561  	97.069100 
3918.445468  	97.002750 
3919.882375  	96.985428 
3921.319282  	96.961815 
3922.756189  	97.050802 
3924.193096  	97.138796 
3925.630003  	97.066014 
3927.066910  	97.076077 
3928.503817  	97.126141 
3929.940724  	97.083472 
3931.377631  	97.088012 
3932.814538  	97.086800 
3934.251445  	96.990292 
3935.688352  	96.974016 
3937.125259  	97.016340 
3938.562166  	97.038951 
3939.999073  	97.042085 
3941.435980  	97.044990 
3942.872887  	97.045342 
3944.309794  	97.039241 
3945.746701  	97.075928 
3947.183608  	97.097182 
3948.620515  	97.080809 
3950.057422  	97.072876 
3951.494329  	97.096857 
3952.931236  	97.094804 
3954.368143  	97.085231 
3955.805051  	97.075008 
3957.241958  	97.064623 
3958.678865  	97.065688 
3960.115772  	97.083713 
3961.552679  	97.127333 
3962.989586  	97.109464 
3964.426493  	97.082089 
3965.863400  	97.109199 
3967.300307  	97.084400 
3968.737214  	97.064210 
3970.174121  	97.114789 
3971.611028  	97.135262 
3973.047935  	97.128113 
3974.484842  	97.109484 
3975.921749  	97.110020 
3977.358656  	97.157760 
3978.795563  	97.138608 
3980.232470  	97.087697 
3981.669377  	97.083517 
3983.106284  	97.078958 
3984.543191  	97.120402 
3985.980098  	97.154733 
3987.417005  	97.113668 
3988.853912  	97.123234 
3990.290819  	97.166470 
3991.727726  	97.177820 
3993.164633  	97.193610 
3994.601540  	97.191282 
3996.038447  	97.188374 
3997.475354  	97.172122 
3998.912261  	97.132711 
4000.349168  	97.153939 