##TITLE=No Description
##DATA TYPE=INFRARED SPECTRUM
##XUNITS=1/CM
##YUNITS=%T
399.460154  	31.085280 
400.897061  	29.447586 
402.333968  	29.516587 
403.770875  	30.543518 
405.207782  	30.650145 
406.644689  	29.541248 
408.081596  	30.310589 
409.518503  	32.050348 
410.955410  	31.827453 
412.392317  	30.832655 
413.829224  	30.512134 
415.266131  	30.759901 
416.703038  	30.859111 
418.139945  	30.381158 
419.576852  	31.021225 
421.013759  	30.678936 
422.450666  	29.578321 
423.887574  	29.701238 
425.324481  	30.143089 
426.761388  	30.338389 
428.198295  	30.709730 
429.635202  	30.526305 
431.072109  	30.635817 
432.509016  	31.094944 
433.945923  	30.943810 
435.382830  	31.371030 
436.819737  	31.704155 
438.256644  	31.313073 
439.693551  	31.668373 
441.130458  	31.395913 
442.567365  	30.291085 
444.004272  	30.420924 
445.441179  	30.921265 
446.878086  	31.348528 
448.314993  	31.393785 
449.751900  	30.913107 
451.188807  	31.109976 
452.625714  	31.350817 
454.062621  	31.138436 
455.499528  	31.536278 
456.936435  	32.170292 
458.373342  	32.052666 
459.810249  	31.483198 
461.247156  	31.250870 
462.684063  	31.423334 
464.120970  	31.283227 
465.557877  	31.304951 
466.994784  	31.996493 
468.431691  	32.126754 
469.868598  	31.818014 
471.305505  	31.577455 
472.742413  	31.211365 
474.179320  	31.444748 
475.616227  	31.793500 
477.053134  	31.607668 
478.490041  	31.189224 
479.926948  	31.077291 
481.363855  	31.456609 
482.800762  	31.608629 
484.237669  	31.410185 
485.674576  	31.653553 
487.111483  	31.583463 
488.548390  	31.192922 
489.985297  	31.249839 
491.422204  	31.469562 
492.859111  	32.004147 
494.296018  	32.402875 
495.732925  	32.112076 
497.169832  	32.102344 
498.606739  	32.182747 
500.043646  	31.906498 
501.480553  	31.805088 
502.917460  	31.668615 
504.354367  	31.699763 
505.791274  	32.047367 
507.228181  	32.161710 
508.665088  	32.335162 
510.101995  	32.457231 
511.538902  	32.249087 
512.975809  	32.366745 
514.412716  	32.473356 
515.849623  	32.210909 
517.286530  	32.221683 
518.723437  	32.488578 
520.160344  	32.657284 
521.597251  	32.726577 
523.034159  	32.798914 
524.471066  	32.896183 
525.907973  	32.813593 
527.344880  	32.837321 
528.781787  	33.049146 
530.218694  	33.019360 
531.655601  	32.944948 
533.092508  	32.960053 
534.529415  	33.013584 
535.966322  	33.256078 
537.403229  	33.336193 
538.840136  	33.231835 
540.277043  	33.251786 
541.713950  	33.307987 
543.150857  	33.544291 
544.587764  	33.750144 
546.024671  	33.641560 
547.461578  	33.739147 
548.898485  	33.966849 
550.335392  	34.001441 
551.772299  	34.104144 
553.209206  	34.197559 
554.646113  	34.246760 
556.083020  	34.438673 
557.519927  	34.647478 
558.956834  	34.755623 
560.393741  	34.773029 
561.830648  	34.805737 
563.267555  	34.854598 
564.704462  	34.833221 
566.141369  	34.875776 
567.578276  	34.909694 
569.015183  	34.892818 
570.452090  	35.055587 
571.888997  	35.195943 
573.325905  	35.257479 
574.762812  	35.406828 
576.199719  	35.463638 
577.636626  	35.516603 
579.073533  	35.689326 
580.510440  	35.797313 
581.947347  	35.885098 
583.384254  	35.966029 
584.821161  	36.050246 
586.258068  	36.247957 
587.694975  	36.443496 
589.131882  	36.575146 
590.568789  	36.638746 
592.005696  	36.660661 
593.442603  	36.789365 
594.879510  	36.914130 
596.316417  	37.009244 
597.753324  	37.152001 
599.190231  	37.231781 
600.627138  	37.373676 
602.064045  	37.598254 
603.500952  	37.719873 
604.937859  	37.843427 
606.374766  	37.925067 
607.811673  	37.975419 
609.248580  	38.185032 
610.685487  	38.373990 
612.122394  	38.481498 
613.559301  	38.629280 
614.996208  	38.737820 
616.433115  	38.849884 
617.870022  	38.967489 
619.306929  	39.073642 
620.743836  	39.260222 
622.180744  	39.387434 
623.617651  	39.488267 
625.054558  	39.720609 
626.491465  	39.883789 
627.928372  	39.922393 
629.365279  	39.981633 
630.802186  	40.089302 
632.239093  	40.260072 
633.676000  	40.443704 
635.112907  	40.611505 
636.549814  	40.765943 
637.986721  	40.903907 
639.423628  	41.032098 
640.860535  	41.168579 
642.297442  	41.317607 
643.734349  	41.493470 
645.171256  	41.646788 
646.608163  	41.757108 
648.045070  	41.939255 
649.481977  	42.106290 
650.918884  	42.290573 
652.355791  	42.498959 
653.792698  	42.655364 
655.229605  	42.809445 
656.666512  	42.922071 
658.103419  	43.049935 
659.540326  	43.281503 
660.977233  	43.454594 
662.414140  	43.604549 
663.851047  	43.817677 
665.287954  	43.907819 
666.724861  	44.009441 
668.161768  	44.257174 
669.598675  	44.521306 
671.035582  	44.637417 
672.472490  	44.783721 
673.909397  	44.998753 
675.346304  	45.202737 
676.783211  	45.360736 
678.220118  	45.536704 
679.657025  	45.730900 
681.093932  	45.934847 
682.530839  	46.112410 
683.967746  	46.248626 
685.404653  	46.410981 
686.841560  	46.622314 
688.278467  	46.840877 
689.715374  	47.013076 
691.152281  	47.154585 
692.589188  	47.354178 
694.026095  	47.585402 
695.463002  	47.743479 
696.899909  	47.932391 
698.336816  	48.202291 
699.773723  	48.433822 
701.210630  	48.598638 
702.647537  	48.756547 
704.084444  	48.975997 
705.521351  	49.232696 
706.958258  	49.462823 
708.395165  	49.686957 
709.832072  	49.871242 
711.268979  	50.034316 
712.705886  	50.235706 
714.142793  	50.431397 
715.579700  	50.629899 
717.016607  	50.860186 
718.453514  	51.081067 
719.890421  	51.308226 
721.327328  	51.555928 
722.764236  	51.793230 
724.201143  	52.017777 
725.638050  	52.148997 
727.074957  	52.286937 
728.511864  	52.570626 
729.948771  	52.859750 
731.385678  	53.062426 
732.822585  	53.256798 
734.259492  	53.467182 
735.696399  	53.671238 
737.133306  	53.858716 
738.570213  	54.077142 
740.007120  	54.313552 
741.444027  	54.522848 
742.880934  	54.759092 
744.317841  	54.989870 
745.754748  	55.224654 
747.191655  	55.533951 
748.628562  	55.770195 
750.065469  	55.919958 
751.502376  	56.130474 
752.939283  	56.358804 
754.376190  	56.587749 
755.813097  	56.816844 
757.250004  	57.035358 
758.686911  	57.321607 
760.123818  	57.603772 
761.560725  	57.834069 
762.997632  	58.071683 
764.434539  	58.287992 
765.871446  	58.549455 
767.308353  	58.839944 
768.745260  	59.041364 
770.182167  	59.256253 
771.619075  	59.495825 
773.055982  	59.698282 
774.492889  	59.941222 
775.929796  	60.180783 
777.366703  	60.406905 
778.803610  	60.670984 
780.240517  	60.898093 
781.677424  	61.094579 
783.114331  	61.297199 
784.551238  	61.539847 
785.988145  	61.867994 
787.425052  	62.148217 
788.861959  	62.347398 
790.298866  	62.600618 
791.735773  	62.897589 
793.172680  	63.177223 
794.609587  	63.411275 
796.046494  	63.620494 
797.483401  	63.853921 
798.920308  	64.087448 
800.357215  	64.362299 
801.794122  	64.672322 
803.231029  	64.914080 
804.667936  	65.152115 
806.104843  	65.401503 
807.541750  	65.581732 
808.978657  	65.781752 
810.415564  	66.061379 
811.852471  	66.365408 
813.289378  	66.644833 
814.726285  	66.881903 
816.163192  	67.105383 
817.600099  	67.311779 
819.037006  	67.544208 
820.473913  	67.849645 
821.910821  	68.121299 
823.347728  	68.344289 
824.784635  	68.586254 
826.221542  	68.829555 
827.658449  	69.112972 
829.095356  	69.409586 
830.532263  	69.632513 
831.969170  	69.856851 
833.406077  	70.125499 
834.842984  	70.360177 
836.279891  	70.563491 
837.716798  	70.832153 
839.153705  	71.154519 
840.590612  	71.398151 
842.027519  	71.607603 
843.464426  	71.891499 
844.901333  	72.166653 
846.338240  	72.398888 
847.775147  	72.640958 
849.212054  	72.899704 
850.648961  	73.175505 
852.085868  	73.410655 
853.522775  	73.610363 
854.959682  	73.851348 
856.396589  	74.102132 
857.833496  	74.355430 
859.270403  	74.622419 
860.707310  	74.860790 
862.144217  	75.092495 
863.581124  	75.325888 
865.018031  	75.559469 
866.454938  	75.813709 
867.891845  	76.045010 
869.328752  	76.249728 
870.765660  	76.464856 
872.202567  	76.696112 
873.639474  	76.928930 
875.076381  	77.126218 
876.513288  	77.340887 
877.950195  	77.607341 
879.387102  	77.842276 
880.824009  	78.065213 
882.260916  	78.299522 
883.697823  	78.500193 
885.134730  	78.703719 
886.571637  	78.918663 
888.008544  	79.137568 
889.445451  	79.353795 
890.882358  	79.525221 
892.319265  	79.711086 
893.756172  	79.923240 
895.193079  	80.099272 
896.629986  	80.289482 
898.066893  	80.506685 
899.503800  	80.719849 
900.940707  	80.917340 
902.377614  	81.072937 
903.814521  	81.245820 
905.251428  	81.446113 
906.688335  	81.620141 
908.125242  	81.796079 
909.562149  	81.963193 
910.999056  	82.135444 
912.435963  	82.339605 
913.872870  	82.507685 
915.309777  	82.668204 
916.746684  	82.853697 
918.183591  	83.025514 
919.620498  	83.195158 
921.057406  	83.332575 
922.494313  	83.473291 
923.931220  	83.649847 
925.368127  	83.753220 
926.805034  	83.845733 
928.241941  	84.015061 
929.678848  	84.168916 
931.115755  	84.296612 
932.552662  	84.407274 
933.989569  	84.512266 
935.426476  	84.654518 
936.863383  	84.774902 
938.300290  	84.879512 
939.737197  	85.004410 
941.174104  	85.115032 
942.611011  	85.232095 
944.047918  	85.341331 
945.484825  	85.456349 
946.921732  	85.606428 
948.358639  	85.710756 
949.795546  	85.808224 
951.232453  	85.924523 
952.669360  	85.985024 
954.106267  	86.065644 
955.543174  	86.173274 
956.980081  	86.262022 
958.416988  	86.373029 
959.853895  	86.455587 
961.290802  	86.547029 
962.727709  	86.676582 
964.164616  	86.742276 
965.601523  	86.815400 
967.038430  	86.903391 
968.475337  	86.939650 
969.912244  	87.028490 
971.349152  	87.134178 
972.786059  	87.209572 
974.222966  	87.302226 
975.659873  	87.336047 
977.096780  	87.378446 
978.533687  	87.504385 
979.970594  	87.588349 
981.407501  	87.631600 
982.844408  	87.684872 
984.281315  	87.748169 
985.718222  	87.828688 
987.155129  	87.881720 
988.592036  	87.931639 
990.028943  	87.987469 
991.465850  	88.021007 
992.902757  	88.083942 
994.339664  	88.135386 
995.776571  	88.169907 
997.213478  	88.246253 
998.650385  	88.293041 
1000.087292  	88.340798 
1001.524199  	88.414898 
1002.961106  	88.432454 
1004.398013  	88.465029 
1005.834920  	88.507562 
1007.271827  	88.511099 
1008.708734  	88.569123 
1010.145641  	88.629584 
1011.582548  	88.658746 
1013.019455  	88.722419 
1014.456362  	88.761307 
1015.893269  	88.794585 
1017.330176  	88.847901 
1018.767083  	88.866881 
1020.203991  	88.903390 
1021.640898  	88.944775 
1023.077805  	88.953330 
1024.514712  	88.991824 
1025.951619  	89.039317 
1027.388526  	89.064200 
1028.825433  	89.091685 
1030.262340  	89.129713 
1031.699247  	89.167694 
1033.136154  	89.162450 
1034.573061  	89.137242 
1036.009968  	89.138606 
1037.446875  	89.161079 
1038.883782  	89.227601 
1040.320689  	89.285127 
1041.757596  	89.287034 
1043.194503  	89.294052 
1044.631410  	89.294820 
1046.068317  	89.314835 
1047.505224  	89.371956 
1048.942131  	89.375623 
1050.379038  	89.390441 
1051.815945  	89.439389 
1053.252852  	89.427350 
1054.689759  	89.442616 
1056.126666  	89.500133 
1057.563573  	89.520420 
1059.000480  	89.562412 
1060.437387  	89.603878 
1061.874294  	89.594228 
1063.311201  	89.587365 
1064.748108  	89.601259 
1066.185015  	89.618971 
1067.621922  	89.618394 
1069.058829  	89.613693 
1070.495737  	89.625871 
1071.932644  	89.633114 
1073.369551  	89.662081 
1074.806458  	89.697607 
1076.243365  	89.693584 
1077.680272  	89.697985 
1079.117179  	89.713523 
1080.554086  	89.720194 
1081.990993  	89.724713 
1083.427900  	89.721885 
1084.864807  	89.753735 
1086.301714  	89.782248 
1087.738621  	89.773980 
1089.175528  	89.804634 
1090.612435  	89.824549 
1092.049342  	89.810189 
1093.486249  	89.819253 
1094.923156  	89.808990 
1096.360063  	89.809972 
1097.796970  	89.816895 
1099.233877  	89.774642 
1100.670784  	89.794083 
1102.107691  	89.861294 
1103.544598  	89.872687 
1104.981505  	89.866916 
1106.418412  	89.864864 
1107.855319  	89.901604 
1109.292226  	89.938005 
1110.729133  	89.897210 
1112.166040  	89.894745 
1113.602947  	89.926517 
1115.039854  	89.910503 
1116.476761  	89.923180 
1117.913668  	89.936060 
1119.350575  	89.936136 
1120.787483  	89.966636 
1122.224390  	89.957824 
1123.661297  	89.957567 
1125.098204  	89.996911 
1126.535111  	90.000096 
1127.972018  	90.005075 
1129.408925  	90.006656 
1130.845832  	89.992585 
1132.282739  	89.998642 
1133.719646  	89.982542 
1135.156553  	89.980357 
1136.593460  	90.009494 
1138.030367  	90.014869 
1139.467274  	90.032713 
1140.904181  	90.031322 
1142.341088  	90.006600 
1143.777995  	90.022672 
1145.214902  	90.007848 
1146.651809  	89.979282 
1148.088716  	89.990626 
1149.525623  	89.970909 
1150.962530  	89.956420 
1152.399437  	89.969830 
1153.836344  	89.962117 
1155.273251  	89.959498 
1156.710158  	89.952393 
1158.147065  	89.952200 
1159.583972  	89.971897 
1161.020879  	89.959044 
1162.457786  	89.949962 
1163.894693  	89.953810 
1165.331600  	89.939625 
1166.768507  	89.945949 
1168.205414  	89.940810 
1169.642322  	89.918922 
1171.079229  	89.927823 
1172.516136  	89.927658 
1173.953043  	89.915917 
1175.389950  	89.912075 
1176.826857  	89.913964 
1178.263764  	89.932713 
1179.700671  	89.924166 
1181.137578  	89.904214 
1182.574485  	89.913640 
1184.011392  	89.909818 
1185.448299  	89.915598 
1186.885206  	89.932955 
1188.322113  	89.916717 
1189.759020  	89.902913 
1191.195927  	89.889673 
1192.632834  	89.879141 
1194.069741  	89.892261 
1195.506648  	89.885560 
1196.943555  	89.881443 
1198.380462  	89.883276 
1199.817369  	89.857194 
1201.254276  	89.859508 
1202.691183  	89.868433 
1204.128090  	89.846830 
1205.564997  	89.843271 
1207.001904  	89.837249 
1208.438811  	89.824455 
1209.875718  	89.822603 
1211.312625  	89.815742 
1212.749532  	89.837319 
1214.186439  	89.861223 
1215.623346  	89.850750 
1217.060253  	89.843548 
1218.497160  	89.830452 
1219.934068  	89.824763 
1221.370975  	89.833715 
1222.807882  	89.818070 
1224.244789  	89.816879 
1225.681696  	89.825410 
1227.118603  	89.814126 
1228.555510  	89.828258 
1229.992417  	89.832832 
1231.429324  	89.806915 
1232.866231  	89.803324 
1234.303138  	89.807923 
1235.740045  	89.805585 
1237.176952  	89.794478 
1238.613859  	89.777513 
1240.050766  	89.780781 
1241.487673  	89.777038 
1242.924580  	89.758261 
1244.361487  	89.744992 
1245.798394  	89.725080 
1247.235301  	89.717251 
1248.672208  	89.720979 
1250.109115  	89.723647 
1251.546022  	89.734978 
1252.982929  	89.719983 
1254.419836  	89.691208 
1255.856743  	89.683884 
1257.293650  	89.671693 
1258.730557  	89.660564 
1260.167464  	89.657519 
1261.604371  	89.670092 
1263.041278  	89.703685 
1264.478185  	89.697826 
1265.915092  	89.673192 
1267.351999  	89.673708 
1268.788907  	89.654406 
1270.225814  	89.637297 
1271.662721  	89.636197 
1273.099628  	89.622042 
1274.536535  	89.617036 
1275.973442  	89.603155 
1277.410349  	89.589857 
1278.847256  	89.605294 
1280.284163  	89.610811 
1281.721070  	89.619389 
1283.157977  	89.626900 
1284.594884  	89.614685 
1286.031791  	89.623884 
1287.468698  	89.624102 
1288.905605  	89.622731 
1290.342512  	89.659361 
1291.779419  	89.667899 
1293.216326  	89.662304 
1294.653233  	89.669834 
1296.090140  	89.663851 
1297.527047  	89.684415 
1298.963954  	89.700995 
1300.400861  	89.694666 
1301.837768  	89.717096 
1303.274675  	89.728966 
1304.711582  	89.736863 
1306.148489  	89.740567 
1307.585396  	89.728805 
1309.022303  	89.731634 
1310.459210  	89.743587 
1311.896117  	89.737898 
1313.333024  	89.752217 
1314.769931  	89.756030 
1316.206838  	89.755782 
1317.643745  	89.757473 
1319.080653  	89.734550 
1320.517560  	89.741962 
1321.954467  	89.757916 
1323.391374  	89.754909 
1324.828281  	89.757801 
1326.265188  	89.761730 
1327.702095  	89.751132 
1329.139002  	89.755524 
1330.575909  	89.738202 
1332.012816  	89.736197 
1333.449723  	89.732900 
1334.886630  	89.710406 
1336.323537  	89.697103 
1337.760444  	89.666848 
1339.197351  	89.646389 
1340.634258  	89.654550 
1342.071165  	89.665458 
1343.508072  	89.654352 
1344.944979  	89.636512 
1346.381886  	89.609931 
1347.818793  	89.607753 
1349.255700  	89.594365 
1350.692607  	89.578753 
1352.129514  	89.566560 
1353.566421  	89.547300 
1355.003328  	89.532993 
1356.440235  	89.524093 
1357.877142  	89.498942 
1359.314049  	89.488364 
1360.750956  	89.457779 
1362.187863  	89.400047 
1363.624770  	89.388920 
1365.061677  	89.377160 
1366.498584  	89.352292 
1367.935491  	89.325082 
1369.372399  	89.289883 
1370.809306  	89.264082 
1372.246213  	89.225132 
1373.683120  	89.154435 
1375.120027  	89.115199 
1376.556934  	89.093540 
1377.993841  	89.067509 
1379.430748  	89.037545 
1380.867655  	88.995467 
1382.304562  	88.962921 
1383.741469  	88.952230 
1385.178376  	88.921743 
1386.615283  	88.897412 
1388.052190  	88.886785 
1389.489097  	88.882064 
1390.926004  	88.901252 
1392.362911  	88.903517 
1393.799818  	88.890875 
1395.236725  	88.909012 
1396.673632  	88.928570 
1398.110539  	88.963788 
1399.547446  	88.988568 
1400.984353  	89.009774 
1402.421260  	89.040025 
1403.858167  	89.058156 
1405.295074  	89.074363 
1406.731981  	89.108535 
1408.168888  	89.120136 
1409.605795  	89.144019 
1411.042702  	89.171352 
1412.479609  	89.178348 
1413.916516  	89.209636 
1415.353423  	89.214002 
1416.790330  	89.217475 
1418.227238  	89.256171 
1419.664145  	89.277254 
1421.101052  	89.313438 
1422.537959  	89.335006 
1423.974866  	89.335055 
1425.411773  	89.368334 
1426.848680  	89.396841 
1428.285587  	89.408192 
1429.722494  	89.437935 
1431.159401  	89.427528 
1432.596308  	89.415126 
1434.033215  	89.406258 
1435.470122  	89.390206 
1436.907029  	89.397171 
1438.343936  	89.420993 
1439.780843  	89.423184 
1441.217750  	89.424152 
1442.654657  	89.402359 
1444.091564  	89.386521 
1445.528471  	89.400017 
1446.965378  	89.388584 
1448.402285  	89.392649 
1449.839192  	89.388218 
1451.276099  	89.368325 
1452.713006  	89.367154 
1454.149913  	89.347451 
1455.586820  	89.337152 
1457.023727  	89.334701 
1458.460634  	89.294901 
1459.897541  	89.305098 
1461.334448  	89.312271 
1462.771355  	89.305789 
1464.208262  	89.315105 
1465.645169  	89.295727 
1467.082076  	89.275041 
1468.518984  	89.279071 
1469.955891  	89.258038 
1471.392798  	89.255769 
1472.829705  	89.235501 
1474.266612  	89.207147 
1475.703519  	89.201800 
1477.140426  	89.182615 
1478.577333  	89.166367 
1480.014240  	89.159783 
1481.451147  	89.137776 
1482.888054  	89.141694 
1484.324961  	89.127465 
1485.761868  	89.062122 
1487.198775  	89.033436 
1488.635682  	88.971586 
1490.072589  	88.905027 
1491.509496  	88.909621 
1492.946403  	88.882115 
1494.383310  	88.853287 
1495.820217  	88.807069 
1497.257124  	88.736816 
1498.694031  	88.739492 
1500.130938  	88.696524 
1501.567845  	88.636411 
1503.004752  	88.620684 
1504.441659  	88.570579 
1505.878566  	88.515231 
1507.315473  	88.433769 
1508.752380  	88.373179 
1510.189287  	88.370282 
1511.626194  	88.321671 
1513.063101  	88.275143 
1514.500008  	88.240915 
1515.936915  	88.162668 
1517.373822  	88.125228 
1518.810730  	88.116202 
1520.247637  	88.022605 
1521.684544  	87.951220 
1523.121451  	87.892373 
1524.558358  	87.808025 
1525.995265  	87.771803 
1527.432172  	87.705880 
1528.869079  	87.643619 
1530.305986  	87.592673 
1531.742893  	87.466972 
1533.179800  	87.390214 
1534.616707  	87.307495 
1536.053614  	87.177557 
1537.490521  	87.110655 
1538.927428  	86.982409 
1540.364335  	86.821976 
1541.801242  	86.777608 
1543.238149  	86.598372 
1544.675056  	86.487239 
1546.111963  	86.396980 
1547.548870  	86.264019 
1548.985777  	86.137356 
1550.422684  	85.960611 
1551.859591  	85.819013 
1553.296498  	85.712260 
1554.733405  	85.522762 
1556.170312  	85.381091 
1557.607219  	85.267049 
1559.044126  	84.953477 
1560.481033  	84.957343 
1561.917940  	84.795315 
1563.354847  	84.615407 
1564.791754  	84.499949 
1566.228661  	84.276023 
1567.665569  	84.124283 
1569.102476  	84.029378 
1570.539383  	83.831225 
1571.976290  	83.715755 
1573.413197  	83.511236 
1574.850104  	83.300442 
1576.287011  	83.168721 
1577.723918  	82.934747 
1579.160825  	82.734935 
1580.597732  	82.576853 
1582.034639  	82.346761 
1583.471546  	82.135319 
1584.908453  	81.911859 
1586.345360  	81.663484 
1587.782267  	81.486347 
1589.219174  	81.175326 
1590.656081  	80.865875 
1592.092988  	80.602402 
1593.529895  	80.249418 
1594.966802  	79.942130 
1596.403709  	79.629115 
1597.840616  	79.251573 
1599.277523  	78.939447 
1600.714430  	78.506664 
1602.151337  	78.052345 
1603.588244  	77.646006 
1605.025151  	77.153511 
1606.462058  	76.702141 
1607.898965  	76.258171 
1609.335872  	75.747908 
1610.772779  	75.306966 
1612.209686  	74.808826 
1613.646593  	74.278820 
1615.083500  	73.862192 
1616.520407  	73.276658 
1617.957315  	72.831078 
1619.394222  	72.429531 
1620.831129  	71.856321 
1622.268036  	71.485891 
1623.704943  	71.103767 
1625.141850  	70.658904 
1626.578757  	70.429889 
1628.015664  	70.094366 
1629.452571  	69.844410 
1630.889478  	69.683942 
1632.326385  	69.394002 
1633.763292  	69.280813 
1635.200199  	69.249868 
1636.637106  	69.291913 
1638.074013  	69.508662 
1639.510920  	69.449590 
1640.947827  	69.509815 
1642.384734  	69.730387 
1643.821641  	69.778660 
1645.258548  	69.954905 
1646.695455  	70.364368 
1648.132362  	70.847897 
1649.569269  	71.208940 
1651.006176  	71.216032 
1652.443083  	71.148616 
1653.879990  	72.531413 
1655.316897  	72.860759 
1656.753804  	72.996384 
1658.190711  	73.400042 
1659.627618  	73.731349 
1661.064525  	74.148078 
1662.501432  	74.608341 
1663.938339  	75.105542 
1665.375246  	75.605630 
1666.812154  	75.982761 
1668.249061  	76.375236 
1669.685968  	76.914391 
1671.122875  	77.414036 
1672.559782  	77.901585 
1673.996689  	78.344491 
1675.433596  	78.795575 
1676.870503  	79.367934 
1678.307410  	79.743713 
1679.744317  	80.132627 
1681.181224  	80.689422 
1682.618131  	81.041296 
1684.055038  	81.423919 
1685.491945  	82.215350 
1686.928852  	82.529714 
1688.365759  	82.915971 
1689.802666  	83.382336 
1691.239573  	83.813258 
1692.676480  	84.282315 
1694.113387  	84.564646 
1695.550294  	84.849939 
1696.987201  	85.335703 
1698.424108  	85.567041 
1699.861015  	85.870618 
1701.297922  	86.395678 
1702.734829  	86.596289 
1704.171736  	86.875901 
1705.608643  	87.208537 
1707.045550  	87.519390 
1708.482457  	87.836325 
1709.919364  	88.094628 
1711.356271  	88.378362 
1712.793178  	88.687052 
1714.230085  	88.922100 
1715.666992  	89.221225 
1717.103900  	89.516338 
1718.540807  	89.758555 
1719.977714  	90.069542 
1721.414621  	90.263766 
1722.851528  	90.498602 
1724.288435  	90.790701 
1725.725342  	91.026291 
1727.162249  	91.291179 
1728.599156  	91.428366 
1730.036063  	91.510579 
1731.472970  	91.671747 
1732.909877  	91.782926 
1734.346784  	91.876257 
1735.783691  	92.120381 
1737.220598  	92.210672 
1738.657505  	92.325514 
1740.094412  	92.459277 
1741.531319  	92.533928 
1742.968226  	92.676475 
1744.405133  	92.782957 
1745.842040  	92.896717 
1747.278947  	93.053388 
1748.715854  	93.134182 
1750.152761  	93.243028 
1751.589668  	93.372115 
1753.026575  	93.457087 
1754.463482  	93.595134 
1755.900389  	93.676630 
1757.337296  	93.712328 
1758.774203  	93.830583 
1760.211110  	93.874099 
1761.648017  	93.908667 
1763.084924  	93.987382 
1764.521831  	94.056703 
1765.958738  	94.192112 
1767.395646  	94.247846 
1768.832553  	94.252254 
1770.269460  	94.342259 
1771.706367  	94.389954 
1773.143274  	94.404348 
1774.580181  	94.458577 
1776.017088  	94.465804 
1777.453995  	94.529796 
1778.890902  	94.608830 
1780.327809  	94.623241 
1781.764716  	94.675213 
1783.201623  	94.714156 
1784.638530  	94.750876 
1786.075437  	94.797674 
1787.512344  	94.819420 
1788.949251  	94.864375 
1790.386158  	94.901071 
1791.823065  	94.884824 
1793.259972  	94.943831 
1794.696879  	94.968313 
1796.133786  	94.982112 
1797.570693  	95.033306 
1799.007600  	95.040385 
1800.444507  	95.078687 
1801.881414  	95.114831 
1803.318321  	95.129660 
1804.755228  	95.199134 
1806.192135  	95.208178 
1807.629042  	95.194969 
1809.065949  	95.265788 
1810.502856  	95.272063 
1811.939763  	95.283675 
1813.376670  	95.333024 
1814.813577  	95.351041 
1816.250485  	95.375429 
1817.687392  	95.349917 
1819.124299  	95.352382 
1820.561206  	95.420435 
1821.998113  	95.410530 
1823.435020  	95.427960 
1824.871927  	95.467449 
1826.308834  	95.420093 
1827.745741  	95.450803 
1829.182648  	95.463680 
1830.619555  	95.391592 
1832.056462  	95.450192 
1833.493369  	95.482129 
1834.930276  	95.512935 
1836.367183  	95.554604 
1837.804090  	95.526492 
1839.240997  	95.560597 
1840.677904  	95.606575 
1842.114811  	95.604082 
1843.551718  	95.642753 
1844.988625  	95.597672 
1846.425532  	95.568856 
1847.862439  	95.611714 
1849.299346  	95.595736 
1850.736253  	95.610182 
1852.173160  	95.633336 
1853.610067  	95.619527 
1855.046974  	95.676779 
1856.483881  	95.672611 
1857.920788  	95.618177 
1859.357695  	95.629371 
1860.794602  	95.611102 
1862.231509  	95.613943 
1863.668416  	95.653688 
1865.105323  	95.639801 
1866.542231  	95.651063 
1867.979138  	95.605475 
1869.416045  	95.588050 
1870.852952  	95.648653 
1872.289859  	95.651213 
1873.726766  	95.690230 
1875.163673  	95.737957 
1876.600580  	95.679632 
1878.037487  	95.731144 
1879.474394  	95.706144 
1880.911301  	95.647064 
1882.348208  	95.697567 
1883.785115  	95.630939 
1885.222022  	95.644359 
1886.658929  	95.732756 
1888.095836  	95.679054 
1889.532743  	95.673268 
1890.969650  	95.656362 
1892.406557  	95.616860 
1893.843464  	95.653676 
1895.280371  	95.631857 
1896.717278  	95.660857 
1898.154185  	95.750090 
1899.591092  	95.719545 
1901.027999  	95.684730 
1902.464906  	95.603344 
1903.901813  	95.538171 
1905.338720  	95.617969 
1906.775627  	95.585353 
1908.212534  	95.619838 
1909.649441  	95.734191 
1911.086348  	95.657663 
1912.523255  	95.684846 
1913.960162  	95.710856 
1915.397069  	95.673972 
1916.833977  	95.725380 
1918.270884  	95.688436 
1919.707791  	95.655487 
1921.144698  	95.691696 
1922.581605  	95.595373 
1924.018512  	95.583979 
1925.455419  	95.621896 
1926.892326  	95.553210 
1928.329233  	95.569182 
1929.766140  	95.559644 
1931.203047  	95.552149 
1932.639954  	95.615567 
1934.076861  	95.545229 
1935.513768  	95.538679 
1936.950675  	95.566997 
1938.387582  	95.515264 
1939.824489  	95.547100 
1941.261396  	95.498091 
1942.698303  	95.420146 
1944.135210  	95.498647 
1945.572117  	95.448688 
1947.009024  	95.491513 
1948.445931  	95.566745 
1949.882838  	95.443093 
1951.319745  	95.581232 
1952.756652  	95.535647 
1954.193559  	95.278514 
1955.630466  	95.445235 
1957.067373  	95.530057 
1958.504280  	95.541720 
1959.941187  	95.581952 
1961.378094  	95.387640 
1962.815001  	95.512736 
1964.251908  	95.574281 
1965.688816  	95.386184 
1967.125723  	95.545851 
1968.562630  	95.580196 
1969.999537  	95.594772 
1971.436444  	95.639126 
1972.873351  	95.461984 
1974.310258  	95.411908 
1975.747165  	95.365841 
1977.184072  	95.309333 
1978.620979  	95.363463 
1980.057886  	95.208108 
1981.494793  	95.226835 
1982.931700  	95.370908 
1984.368607  	95.274044 
1985.805514  	95.368019 
1987.242421  	95.370109 
1988.679328  	95.112490 
1990.116235  	95.135152 
1991.553142  	95.030362 
1992.990049  	94.879435 
1994.426956  	94.985676 
1995.863863  	94.945057 
1997.300770  	94.968640 
1998.737677  	95.013503 
2000.174584  	94.864642 
2001.611491  	94.986642 
2003.048398  	94.969609 
2004.485305  	94.822128 
2005.922212  	94.848463 
2007.359119  	94.611437 
2008.796026  	94.594049 
2010.232933  	94.732901 
2011.669840  	94.524705 
2013.106747  	94.604839 
2014.543654  	94.778016 
2015.980562  	94.869819 
2017.417469  	95.012546 
2018.854376  	94.697056 
2020.291283  	94.477503 
2021.728190  	94.481333 
2023.165097  	94.457285 
2024.602004  	94.729176 
2026.038911  	94.725622 
2027.475818  	94.572016 
2028.912725  	94.654890 
2030.349632  	94.474497 
2031.786539  	94.689990 
2033.223446  	95.086903 
2034.660353  	94.765612 
2036.097260  	94.520036 
2037.534167  	94.383916 
2038.971074  	94.400759 
2040.407981  	94.664132 
2041.844888  	94.425804 
2043.281795  	94.360715 
2044.718702  	94.654388 
2046.155609  	94.534015 
2047.592516  	94.607372 
2049.029423  	94.643805 
2050.466330  	94.246768 
2051.903237  	94.174295 
2053.340144  	94.267837 
2054.777051  	94.299661 
2056.213958  	94.352145 
2057.650865  	94.298086 
2059.087772  	94.410979 
2060.524679  	94.502158 
2061.961586  	94.383094 
2063.398493  	94.382811 
2064.835401  	94.263929 
2066.272308  	94.152149 
2067.709215  	94.288717 
2069.146122  	94.272106 
2070.583029  	94.286678 
2072.019936  	94.363142 
2073.456843  	94.263243 
2074.893750  	94.255531 
2076.330657  	94.195708 
2077.767564  	94.098827 
2079.204471  	94.210622 
2080.641378  	94.161995 
2082.078285  	94.035932 
2083.515192  	94.083619 
2084.952099  	94.080088 
2086.389006  	94.068388 
2087.825913  	94.042434 
2089.262820  	93.978952 
2090.699727  	94.035625 
2092.136634  	94.083818 
2093.573541  	94.121387 
2095.010448  	94.185635 
2096.447355  	94.168321 
2097.884262  	94.185802 
2099.321169  	94.181274 
2100.758076  	94.156434 
2102.194983  	94.186070 
2103.631890  	94.070546 
2105.068797  	93.970076 
2106.505704  	93.978871 
2107.942611  	93.915439 
2109.379518  	93.950661 
2110.816425  	94.011430 
2112.253332  	93.924565 
2113.690239  	93.875226 
2115.127147  	93.901106 
2116.564054  	94.018159 
2118.000961  	94.091581 
2119.437868  	93.965497 
2120.874775  	93.939676 
2122.311682  	93.967066 
2123.748589  	93.910222 
2125.185496  	93.991221 
2126.622403  	94.027736 
2128.059310  	94.037451 
2129.496217  	94.199308 
2130.933124  	94.202634 
2132.370031  	94.209561 
2133.806938  	94.300509 
2135.243845  	94.142826 
2136.680752  	94.112566 
2138.117659  	94.271400 
2139.554566  	94.223003 
2140.991473  	94.111865 
2142.428380  	94.006757 
2143.865287  	93.955158 
2145.302194  	94.036481 
2146.739101  	94.132496 
2148.176008  	94.270579 
2149.612915  	94.343961 
2151.049822  	94.378014 
2152.486729  	94.375477 
2153.923636  	94.120066 
2155.360543  	93.994570 
2156.797450  	94.213454 
2158.234357  	94.523315 
2159.671264  	94.654441 
2161.108171  	94.036322 
2162.545078  	93.528722 
2163.981985  	93.804744 
2165.418893  	94.160351 
2166.855800  	94.474453 
2168.292707  	94.744996 
2169.729614  	94.574668 
2171.166521  	94.295023 
2172.603428  	94.243829 
2174.040335  	94.483239 
2175.477242  	94.626894 
2176.914149  	94.388307 
2178.351056  	94.348777 
2179.787963  	94.215426 
2181.224870  	93.775908 
2182.661777  	93.974524 
2184.098684  	94.434162 
2185.535591  	94.378714 
2186.972498  	94.223627 
2188.409405  	94.147989 
2189.846312  	94.273955 
2191.283219  	94.453843 
2192.720126  	94.435436 
2194.157033  	94.589010 
2195.593940  	94.630232 
2197.030847  	94.400187 
2198.467754  	94.441941 
2199.904661  	94.505588 
2201.341568  	94.445125 
2202.778475  	94.525051 
2204.215382  	94.626877 
2205.652289  	94.782028 
2207.089196  	94.851929 
2208.526103  	94.778720 
2209.963010  	94.770241 
2211.399917  	94.618603 
2212.836824  	94.534511 
2214.273732  	94.704857 
2215.710639  	94.681666 
2217.147546  	94.587241 
2218.584453  	94.585126 
2220.021360  	94.520862 
2221.458267  	94.538876 
2222.895174  	94.620610 
2224.332081  	94.773745 
2225.768988  	94.911523 
2227.205895  	94.741719 
2228.642802  	94.637390 
2230.079709  	94.750444 
2231.516616  	94.704718 
2232.953523  	94.589966 
2234.390430  	94.561446 
2235.827337  	94.686198 
2237.264244  	94.897115 
2238.701151  	94.859382 
2240.138058  	94.768725 
2241.574965  	94.895890 
2243.011872  	95.018962 
2244.448779  	95.015097 
2245.885686  	94.900928 
2247.322593  	94.860750 
2248.759500  	94.961706 
2250.196407  	94.969779 
2251.633314  	94.983035 
2253.070221  	95.054132 
2254.507128  	95.075626 
2255.944035  	95.128265 
2257.380942  	95.092531 
2258.817849  	95.012344 
2260.254756  	95.135845 
2261.691663  	95.267729 
2263.128570  	95.276402 
2264.565478  	95.290544 
2266.002385  	95.304018 
2267.439292  	95.278377 
2268.876199  	95.205641 
2270.313106  	95.206728 
2271.750013  	95.253060 
2273.186920  	95.224162 
2274.623827  	95.277197 
2276.060734  	95.356253 
2277.497641  	95.311679 
2278.934548  	95.335465 
2280.371455  	95.405859 
2281.808362  	95.398233 
2283.245269  	95.354633 
2284.682176  	95.274803 
2286.119083  	95.258587 
2287.555990  	95.290016 
2288.992897  	95.281521 
2290.429804  	95.330897 
2291.866711  	95.360378 
2293.303618  	95.322698 
2294.740525  	95.351379 
2296.177432  	95.373396 
2297.614339  	95.353882 
2299.051246  	95.356377 
2300.488153  	95.354845 
2301.925060  	95.404162 
2303.361967  	95.431201 
2304.798874  	95.376342 
2306.235781  	95.354522 
2307.672688  	95.312225 
2309.109595  	95.309085 
2310.546502  	95.429793 
2311.983409  	95.462836 
2313.420317  	95.412914 
2314.857224  	95.386333 
2316.294131  	95.354829 
2317.731038  	95.383209 
2319.167945  	95.400466 
2320.604852  	95.352769 
2322.041759  	95.311130 
2323.478666  	95.220279 
2324.915573  	95.212273 
2326.352480  	95.362662 
2327.789387  	95.486051 
2329.226294  	95.546314 
2330.663201  	95.541016 
2332.100108  	95.514693 
2333.537015  	95.586622 
2334.973922  	95.603978 
2336.410829  	95.550858 
2337.847736  	95.612202 
2339.284643  	95.706970 
2340.721550  	95.717154 
2342.158457  	95.659035 
2343.595364  	95.626023 
2345.032271  	95.640744 
2346.469178  	95.579340 
2347.906085  	95.539619 
2349.342992  	95.599567 
2350.779899  	95.658286 
2352.216806  	95.697053 
2353.653713  	95.770635 
2355.090620  	95.844927 
2356.527527  	95.919019 
2357.964434  	95.940321 
2359.401341  	95.948363 
2360.838248  	96.054191 
2362.275155  	96.133135 
2363.712063  	96.177414 
2365.148970  	96.230642 
2366.585877  	96.284338 
2368.022784  	96.386186 
2369.459691  	96.382846 
2370.896598  	96.274423 
2372.333505  	96.259365 
2373.770412  	96.291214 
2375.207319  	96.294823 
2376.644226  	96.295300 
2378.081133  	96.290167 
2379.518040  	96.276121 
2380.954947  	96.251374 
2382.391854  	96.244545 
2383.828761  	96.262300 
2385.265668  	96.271260 
2386.702575  	96.274721 
2388.139482  	96.290279 
2389.576389  	96.340344 
2391.013296  	96.370698 
2392.450203  	96.344900 
2393.887110  	96.360155 
2395.324017  	96.392367 
2396.760924  	96.358907 
2398.197831  	96.360927 
2399.634738  	96.389986 
2401.071645  	96.374710 
2402.508552  	96.385819 
2403.945459  	96.401770 
2405.382366  	96.400544 
2406.819273  	96.408777 
2408.256180  	96.387764 
2409.693087  	96.399207 
2411.129994  	96.441948 
2412.566901  	96.436678 
2414.003809  	96.455027 
2415.440716  	96.479754 
2416.877623  	96.463406 
2418.314530  	96.488055 
2419.751437  	96.520679 
2421.188344  	96.513075 
2422.625251  	96.502566 
2424.062158  	96.494272 
2425.499065  	96.491642 
2426.935972  	96.488952 
2428.372879  	96.518765 
2429.809786  	96.579840 
2431.246693  	96.584504 
2432.683600  	96.580456 
2434.120507  	96.605880 
2435.557414  	96.597797 
2436.994321  	96.592836 
2438.431228  	96.586547 
2439.868135  	96.564281 
2441.305042  	96.583466 
2442.741949  	96.613084 
2444.178856  	96.636118 
2445.615763  	96.652528 
2447.052670  	96.662734 
2448.489577  	96.702848 
2449.926484  	96.670320 
2451.363391  	96.594901 
2452.800298  	96.648893 
2454.237205  	96.699816 
2455.674112  	96.671017 
2457.111019  	96.699164 
2458.547926  	96.719810 
2459.984833  	96.663211 
2461.421740  	96.615193 
2462.858648  	96.646052 
2464.295555  	96.725262 
2465.732462  	96.740684 
2467.169369  	96.724801 
2468.606276  	96.746409 
2470.043183  	96.744989 
2471.480090  	96.756071 
2472.916997  	96.783020 
2474.353904  	96.760504 
2475.790811  	96.752070 
2477.227718  	96.768997 
2478.664625  	96.800492 
2480.101532  	96.823128 
2481.538439  	96.735510 
2482.975346  	96.674156 
2484.412253  	96.760196 
2485.849160  	96.818530 
2487.286067  	96.811278 
2488.722974  	96.802239 
2490.159881  	96.778949 
2491.596788  	96.791722 
2493.033695  	96.821050 
2494.470602  	96.814869 
2495.907509  	96.820348 
2497.344416  	96.837963 
2498.781323  	96.836762 
2500.218230  	96.825320 
2501.655137  	96.821220 
2503.092044  	96.847414 
2504.528951  	96.889131 
2505.965858  	96.885615 
2507.402765  	96.846876 
2508.839672  	96.885703 
2510.276579  	96.965712 
2511.713486  	96.931517 
2513.150394  	96.877587 
2514.587301  	96.905703 
2516.024208  	96.902803 
2517.461115  	96.883927 
2518.898022  	96.907578 
2520.334929  	96.920073 
2521.771836  	96.906882 
2523.208743  	96.882050 
2524.645650  	96.913355 
2526.082557  	96.973377 
2527.519464  	96.940861 
2528.956371  	96.934884 
2530.393278  	97.005417 
2531.830185  	96.997149 
2533.267092  	96.963187 
2534.703999  	96.966328 
2536.140906  	96.956411 
2537.577813  	96.950396 
2539.014720  	96.944490 
2540.451627  	96.958312 
2541.888534  	96.979594 
2543.325441  	96.962144 
2544.762348  	96.971574 
2546.199255  	96.978991 
2547.636162  	96.955205 
2549.073069  	96.974502 
2550.509976  	96.968496 
2551.946883  	96.952910 
2553.383790  	97.006533 
2554.820697  	97.030985 
2556.257604  	97.028772 
2557.694511  	97.028116 
2559.131418  	96.994468 
2560.568325  	96.986973 
2562.005232  	96.967908 
2563.442140  	96.927355 
2564.879047  	96.946314 
2566.315954  	96.956739 
2567.752861  	96.970071 
2569.189768  	97.032550 
2570.626675  	97.031962 
2572.063582  	96.994714 
2573.500489  	97.020967 
2574.937396  	97.066153 
2576.374303  	97.068116 
2577.811210  	97.042652 
2579.248117  	97.038366 
2580.685024  	97.011081 
2582.121931  	96.957486 
2583.558838  	96.970944 
2584.995745  	96.990224 
2586.432652  	96.979205 
2587.869559  	97.005955 
2589.306466  	97.007431 
2590.743373  	96.988959 
2592.180280  	97.008970 
2593.617187  	97.011914 
2595.054094  	96.998093 
2596.491001  	96.977453 
2597.927908  	96.971018 
2599.364815  	97.002407 
2600.801722  	96.975336 
2602.238629  	96.936316 
2603.675536  	96.978526 
2605.112443  	96.999718 
2606.549350  	97.002706 
2607.986257  	97.018199 
2609.423164  	96.990017 
2610.860071  	96.991926 
2612.296979  	97.024955 
2613.733886  	97.004238 
2615.170793  	96.975045 
2616.607700  	96.967539 
2618.044607  	96.971369 
2619.481514  	96.976338 
2620.918421  	96.967616 
2622.355328  	96.982614 
2623.792235  	96.999820 
2625.229142  	96.978433 
2626.666049  	96.958531 
2628.102956  	96.948045 
2629.539863  	96.949973 
2630.976770  	96.964991 
2632.413677  	96.962125 
2633.850584  	96.969413 
2635.287491  	96.982628 
2636.724398  	96.964271 
2638.161305  	96.948431 
2639.598212  	96.943221 
2641.035119  	96.945213 
2642.472026  	96.967236 
2643.908933  	96.978513 
2645.345840  	96.981755 
2646.782747  	96.981879 
2648.219654  	96.952429 
2649.656561  	96.925895 
2651.093468  	96.923948 
2652.530375  	96.925367 
2653.967282  	96.925487 
2655.404189  	96.910091 
2656.841096  	96.891794 
2658.278003  	96.905450 
2659.714910  	96.929787 
2661.151817  	96.936565 
2662.588725  	96.933682 
2664.025632  	96.930840 
2665.462539  	96.930801 
2666.899446  	96.931197 
2668.336353  	96.929163 
2669.773260  	96.927213 
2671.210167  	96.925503 
2672.647074  	96.915576 
2674.083981  	96.902875 
2675.520888  	96.907355 
2676.957795  	96.911207 
2678.394702  	96.895663 
2679.831609  	96.890611 
2681.268516  	96.898125 
2682.705423  	96.894210 
2684.142330  	96.884463 
2685.579237  	96.874466 
2687.016144  	96.867202 
2688.453051  	96.853240 
2689.889958  	96.826208 
2691.326865  	96.827462 
2692.763772  	96.855202 
2694.200679  	96.856796 
2695.637586  	96.842839 
2697.074493  	96.835452 
2698.511400  	96.820487 
2699.948307  	96.800078 
2701.385214  	96.786987 
2702.822121  	96.788920 
2704.259028  	96.792655 
2705.695935  	96.779814 
2707.132842  	96.773569 
2708.569749  	96.780944 
2710.006656  	96.772752 
2711.443564  	96.762518 
2712.880471  	96.768340 
2714.317378  	96.762885 
2715.754285  	96.748297 
2717.191192  	96.745478 
2718.628099  	96.724428 
2720.065006  	96.684846 
2721.501913  	96.680500 
2722.938820  	96.699821 
2724.375727  	96.700637 
2725.812634  	96.690995 
2727.249541  	96.680583 
2728.686448  	96.672294 
2730.123355  	96.660835 
2731.560262  	96.638071 
2732.997169  	96.626717 
2734.434076  	96.619567 
2735.870983  	96.603513 
2737.307890  	96.600613 
2738.744797  	96.580664 
2740.181704  	96.546989 
2741.618611  	96.561687 
2743.055518  	96.578494 
2744.492425  	96.548516 
2745.929332  	96.519185 
2747.366239  	96.503077 
2748.803146  	96.487810 
2750.240053  	96.477102 
2751.676960  	96.474442 
2753.113867  	96.479381 
2754.550774  	96.463635 
2755.987681  	96.436657 
2757.424588  	96.431699 
2758.861495  	96.421029 
2760.298402  	96.398431 
2761.735310  	96.381565 
2763.172217  	96.365073 
2764.609124  	96.363404 
2766.046031  	96.356840 
2767.482938  	96.326964 
2768.919845  	96.313075 
2770.356752  	96.300164 
2771.793659  	96.268818 
2773.230566  	96.257115 
2774.667473  	96.256286 
2776.104380  	96.243494 
2777.541287  	96.223758 
2778.978194  	96.192610 
2780.415101  	96.161552 
2781.852008  	96.141615 
2783.288915  	96.131174 
2784.725822  	96.129226 
2786.162729  	96.109849 
2787.599636  	96.074615 
2789.036543  	96.069463 
2790.473450  	96.080833 
2791.910357  	96.053503 
2793.347264  	96.007412 
2794.784171  	95.994217 
2796.221078  	95.992146 
2797.657985  	95.971009 
2799.094892  	95.950272 
2800.531799  	95.928917 
2801.968706  	95.898202 
2803.405613  	95.872200 
2804.842520  	95.849387 
2806.279427  	95.829167 
2807.716334  	95.807887 
2809.153241  	95.776026 
2810.590148  	95.749710 
2812.027056  	95.727190 
2813.463963  	95.701973 
2814.900870  	95.690691 
2816.337777  	95.671015 
2817.774684  	95.623875 
2819.211591  	95.581217 
2820.648498  	95.564655 
2822.085405  	95.556783 
2823.522312  	95.517015 
2824.959219  	95.457775 
2826.396126  	95.437080 
2827.833033  	95.428383 
2829.269940  	95.390781 
2830.706847  	95.366106 
2832.143754  	95.368594 
2833.580661  	95.357528 
2835.017568  	95.308544 
2836.454475  	95.246155 
2837.891382  	95.219989 
2839.328289  	95.212119 
2840.765196  	95.173413 
2842.202103  	95.119173 
2843.639010  	95.068350 
2845.075917  	95.013237 
2846.512824  	94.962099 
2847.949731  	94.931472 
2849.386638  	94.925081 
2850.823545  	94.914193 
2852.260452  	94.864886 
2853.697359  	94.794088 
2855.134266  	94.747201 
2856.571173  	94.731601 
2858.008080  	94.702825 
2859.444987  	94.655314 
2860.881895  	94.638709 
2862.318802  	94.629071 
2863.755709  	94.577876 
2865.192616  	94.527667 
2866.629523  	94.500119 
2868.066430  	94.456798 
2869.503337  	94.400454 
2870.940244  	94.354232 
2872.377151  	94.316963 
2873.814058  	94.281452 
2875.250965  	94.240009 
2876.687872  	94.192620 
2878.124779  	94.152862 
2879.561686  	94.120859 
2880.998593  	94.068745 
2882.435500  	93.993235 
2883.872407  	93.927733 
2885.309314  	93.874898 
2886.746221  	93.826716 
2888.183128  	93.788276 
2889.620035  	93.736259 
2891.056942  	93.673084 
2892.493849  	93.623207 
2893.930756  	93.555642 
2895.367663  	93.477085 
2896.804570  	93.436414 
2898.241477  	93.389605 
2899.678384  	93.298466 
2901.115291  	93.225493 
2902.552198  	93.194546 
2903.989105  	93.158992 
2905.426012  	93.089911 
2906.862919  	92.986710 
2908.299826  	92.883517 
2909.736733  	92.820473 
2911.173641  	92.773610 
2912.610548  	92.707770 
2914.047455  	92.642912 
2915.484362  	92.588191 
2916.921269  	92.515403 
2918.358176  	92.427162 
2919.795083  	92.349254 
2921.231990  	92.269724 
2922.668897  	92.170119 
2924.105804  	92.077852 
2925.542711  	92.018143 
2926.979618  	91.963982 
2928.416525  	91.881617 
2929.853432  	91.787087 
2931.290339  	91.727488 
2932.727246  	91.702372 
2934.164153  	91.650622 
2935.601060  	91.551785 
2937.037967  	91.453589 
2938.474874  	91.383195 
2939.911781  	91.325006 
2941.348688  	91.256697 
2942.785595  	91.164040 
2944.222502  	91.065654 
2945.659409  	90.984232 
2947.096316  	90.887540 
2948.533223  	90.765398 
2949.970130  	90.674245 
2951.407037  	90.612368 
2952.843944  	90.527864 
2954.280851  	90.423716 
2955.717758  	90.311484 
2957.154665  	90.205068 
2958.591572  	90.116241 
2960.028479  	89.996857 
2961.465387  	89.869759 
2962.902294  	89.803401 
2964.339201  	89.724062 
2965.776108  	89.591333 
2967.213015  	89.478992 
2968.649922  	89.387138 
2970.086829  	89.296186 
2971.523736  	89.200653 
2972.960643  	89.075292 
2974.397550  	88.956679 
2975.834457  	88.856370 
2977.271364  	88.728384 
2978.708271  	88.582162 
2980.145178  	88.444906 
2981.582085  	88.324262 
2983.018992  	88.204940 
2984.455899  	88.080668 
2985.892806  	87.986056 
2987.329713  	87.880129 
2988.766620  	87.722986 
2990.203527  	87.581593 
2991.640434  	87.453851 
2993.077341  	87.301963 
2994.514248  	87.150141 
2995.951155  	87.002307 
2997.388062  	86.872706 
2998.824969  	86.752416 
3000.261876  	86.606926 
3001.698783  	86.463892 
3003.135690  	86.312778 
3004.572597  	86.139037 
3006.009504  	85.988935 
3007.446411  	85.847282 
3008.883318  	85.690743 
3010.320226  	85.526725 
3011.757133  	85.356964 
3013.194040  	85.205505 
3014.630947  	85.050669 
3016.067854  	84.874774 
3017.504761  	84.709765 
3018.941668  	84.543396 
3020.378575  	84.366147 
3021.815482  	84.178054 
3023.252389  	83.991948 
3024.689296  	83.835717 
3026.126203  	83.655431 
3027.563110  	83.454642 
3029.000017  	83.275869 
3030.436924  	83.061202 
3031.873831  	82.854843 
3033.310738  	82.695399 
3034.747645  	82.512791 
3036.184552  	82.346988 
3037.621459  	82.168583 
3039.058366  	81.924313 
3040.495273  	81.703011 
3041.932180  	81.491316 
3043.369087  	81.276693 
3044.805994  	81.097053 
3046.242901  	80.887904 
3047.679808  	80.657129 
3049.116715  	80.429618 
3050.553622  	80.209686 
3051.990529  	80.022411 
3053.427436  	79.787526 
3054.864343  	79.538925 
3056.301250  	79.339625 
3057.738157  	79.102707 
3059.175064  	78.889731 
3060.611972  	78.693211 
3062.048879  	78.418017 
3063.485786  	78.173358 
3064.922693  	77.930341 
3066.359600  	77.652923 
3067.796507  	77.446188 
3069.233414  	77.217636 
3070.670321  	76.960342 
3072.107228  	76.729184 
3073.544135  	76.449842 
3074.981042  	76.174502 
3076.417949  	75.894986 
3077.854856  	75.602616 
3079.291763  	75.384729 
3080.728670  	75.133492 
3082.165577  	74.845774 
3083.602484  	74.587988 
3085.039391  	74.303797 
3086.476298  	74.073629 
3087.913205  	73.831295 
3089.350112  	73.511107 
3090.787019  	73.274634 
3092.223926  	73.016331 
3093.660833  	72.679481 
3095.097740  	72.393989 
3096.534647  	72.103988 
3097.971554  	71.845448 
3099.408461  	71.590516 
3100.845368  	71.249142 
3102.282275  	70.960665 
3103.719182  	70.688472 
3105.156089  	70.385707 
3106.592996  	70.127572 
3108.029903  	69.825824 
3109.466811  	69.528281 
3110.903718  	69.254601 
3112.340625  	68.927610 
3113.777532  	68.639978 
3115.214439  	68.325949 
3116.651346  	67.985792 
3118.088253  	67.728136 
3119.525160  	67.424210 
3120.962067  	67.122718 
3122.398974  	66.843660 
3123.835881  	66.483233 
3125.272788  	66.196386 
3126.709695  	65.926794 
3128.146602  	65.593947 
3129.583509  	65.304609 
3131.020416  	64.953035 
3132.457323  	64.615787 
3133.894230  	64.370111 
3135.331137  	64.069935 
3136.768044  	63.794193 
3138.204951  	63.487444 
3139.641858  	63.127784 
3141.078765  	62.877628 
3142.515672  	62.580960 
3143.952579  	62.257364 
3145.389486  	61.997703 
3146.826393  	61.661370 
3148.263300  	61.384271 
3149.700207  	61.133121 
3151.137114  	60.773550 
3152.574021  	60.473875 
3154.010928  	60.192084 
3155.447835  	59.920173 
3156.884742  	59.666016 
3158.321649  	59.315570 
3159.758557  	59.056217 
3161.195464  	58.830149 
3162.632371  	58.508582 
3164.069278  	58.258157 
3165.506185  	57.934879 
3166.943092  	57.610857 
3168.379999  	57.451272 
3169.816906  	57.190128 
3171.253813  	56.916598 
3172.690720  	56.697562 
3174.127627  	56.397116 
3175.564534  	56.160408 
3177.001441  	55.894587 
3178.438348  	55.625723 
3179.875255  	55.472609 
3181.312162  	55.189999 
3182.749069  	54.907728 
3184.185976  	54.688808 
3185.622883  	54.391152 
3187.059790  	54.225049 
3188.496697  	54.047800 
3189.933604  	53.777444 
3191.370511  	53.605163 
3192.807418  	53.362148 
3194.244325  	53.154761 
3195.681232  	53.022891 
3197.118139  	52.777420 
3198.555046  	52.638684 
3199.991953  	52.479789 
3201.428860  	52.206928 
3202.865767  	52.073179 
3204.302674  	51.885115 
3205.739581  	51.690240 
3207.176488  	51.582548 
3208.613395  	51.363144 
3210.050303  	51.244607 
3211.487210  	51.149623 
3212.924117  	50.933620 
3214.361024  	50.832360 
3215.797931  	50.673543 
3217.234838  	50.487822 
3218.671745  	50.411403 
3220.108652  	50.259605 
3221.545559  	50.193158 
3222.982466  	50.113677 
3224.419373  	49.900088 
3225.856280  	49.834771 
3227.293187  	49.740717 
3228.730094  	49.617365 
3230.167001  	49.596726 
3231.603908  	49.434166 
3233.040815  	49.322043 
3234.477722  	49.288186 
3235.914629  	49.189804 
3237.351536  	49.221986 
3238.788443  	49.147383 
3240.225350  	48.985978 
3241.662257  	48.990837 
3243.099164  	48.904828 
3244.536071  	48.837680 
3245.972978  	48.831465 
3247.409885  	48.713492 
3248.846792  	48.715005 
3250.283699  	48.695584 
3251.720606  	48.622015 
3253.157513  	48.681539 
3254.594420  	48.622056 
3256.031327  	48.568704 
3257.468234  	48.588842 
3258.905142  	48.488946 
3260.342049  	48.506039 
3261.778956  	48.511715 
3263.215863  	48.412845 
3264.652770  	48.440349 
3266.089677  	48.406035 
3267.526584  	48.382196 
3268.963491  	48.419440 
3270.400398  	48.325672 
3271.837305  	48.319056 
3273.274212  	48.318627 
3274.711119  	48.280132 
3276.148026  	48.400492 
3277.584933  	48.383954 
3279.021840  	48.313367 
3280.458747  	48.353481 
3281.895654  	48.284070 
3283.332561  	48.281685 
3284.769468  	48.296862 
3286.206375  	48.222504 
3287.643282  	48.268981 
3289.080189  	48.260464 
3290.517096  	48.231360 
3291.954003  	48.268785 
3293.390910  	48.201785 
3294.827817  	48.233690 
3296.264724  	48.262245 
3297.701631  	48.181602 
3299.138538  	48.240391 
3300.575445  	48.234444 
3302.012352  	48.209942 
3303.449259  	48.271955 
3304.886166  	48.174945 
3306.323073  	48.162005 
3307.759980  	48.208936 
3309.196888  	48.140776 
3310.633795  	48.213071 
3312.070702  	48.232485 
3313.507609  	48.189545 
3314.944516  	48.244225 
3316.381423  	48.164159 
3317.818330  	48.154661 
3319.255237  	48.232031 
3320.692144  	48.196461 
3322.129051  	48.250159 
3323.565958  	48.222906 
3325.002865  	48.155403 
3326.439772  	48.249573 
3327.876679  	48.213318 
3329.313586  	48.202734 
3330.750493  	48.261837 
3332.187400  	48.202544 
3333.624307  	48.277328 
3335.061214  	48.281654 
3336.498121  	48.172907 
3337.935028  	48.256069 
3339.371935  	48.249180 
3340.808842  	48.225285 
3342.245749  	48.304794 
3343.682656  	48.289566 
3345.119563  	48.373636 
3346.556470  	48.415299 
3347.993377  	48.355792 
3349.430284  	48.456823 
3350.867191  	48.463633 
3352.304098  	48.455248 
3353.741005  	48.559238 
3355.177912  	48.547008 
3356.614819  	48.620333 
3358.051726  	48.683842 
3359.488634  	48.633324 
3360.925541  	48.733681 
3362.362448  	48.776651 
3363.799355  	48.803153 
3365.236262  	48.919869 
3366.673169  	48.901139 
3368.110076  	48.980259 
3369.546983  	49.109727 
3370.983890  	49.143250 
3372.420797  	49.301719 
3373.857704  	49.388242 
3375.294611  	49.444919 
3376.731518  	49.592664 
3378.168425  	49.596236 
3379.605332  	49.683076 
3381.042239  	49.836350 
3382.479146  	49.868561 
3383.916053  	50.008534 
3385.352960  	50.137088 
3386.789867  	50.256327 
3388.226774  	50.429260 
3389.663681  	50.449082 
3391.100588  	50.561526 
3392.537495  	50.750624 
3393.974402  	50.830781 
3395.411309  	51.012073 
3396.848216  	51.148109 
3398.285123  	51.267422 
3399.722030  	51.463481 
3401.158937  	51.520480 
3402.595844  	51.678393 
3404.032751  	51.887082 
3405.469658  	51.976581 
3406.906565  	52.222674 
3408.343473  	52.400797 
3409.780380  	52.496582 
3411.217287  	52.733427 
3412.654194  	52.877807 
3414.091101  	53.085046 
3415.528008  	53.320723 
3416.964915  	53.379690 
3418.401822  	53.570517 
3419.838729  	53.765980 
3421.275636  	53.944514 
3422.712543  	54.278469 
3424.149450  	54.425981 
3425.586357  	54.574219 
3427.023264  	54.811720 
3428.460171  	54.894666 
3429.897078  	55.129435 
3431.333985  	55.392700 
3432.770892  	55.512638 
3434.207799  	55.744525 
3435.644706  	55.925265 
3437.081613  	56.128767 
3438.518520  	56.409536 
3439.955427  	56.574086 
3441.392334  	56.864421 
3442.829241  	57.126527 
3444.266148  	57.205433 
3445.703055  	57.407565 
3447.139962  	57.611230 
3448.576869  	57.877003 
3450.013776  	58.195770 
3451.450683  	58.319547 
3452.887590  	58.527978 
3454.324497  	58.763511 
3455.761404  	58.910792 
3457.198311  	59.232561 
3458.635219  	59.464945 
3460.072126  	59.602921 
3461.509033  	59.853456 
3462.945940  	60.015536 
3464.382847  	60.227935 
3465.819754  	60.459482 
3467.256661  	60.612078 
3468.693568  	60.922033 
3470.130475  	61.164933 
3471.567382  	61.319036 
3473.004289  	61.571595 
3474.441196  	61.762884 
3475.878103  	62.027386 
3477.315010  	62.290061 
3478.751917  	62.396553 
3480.188824  	62.617182 
3481.625731  	62.853529 
3483.062638  	63.082898 
3484.499545  	63.383130 
3485.936452  	63.517909 
3487.373359  	63.709651 
3488.810266  	64.018080 
3490.247173  	64.216210 
3491.684080  	64.471774 
3493.120987  	64.699118 
3494.557894  	64.884453 
3495.994801  	65.137890 
3497.431708  	65.281896 
3498.868615  	65.519576 
3500.305522  	65.830410 
3501.742429  	65.950218 
3503.179336  	66.152504 
3504.616243  	66.427389 
3506.053150  	66.633987 
3507.490058  	66.915416 
3508.926965  	67.158193 
3510.363872  	67.404390 
3511.800779  	67.643241 
3513.237686  	67.791885 
3514.674593  	68.049625 
3516.111500  	68.280611 
3517.548407  	68.456896 
3518.985314  	68.757198 
3520.422221  	68.966252 
3521.859128  	69.146349 
3523.296035  	69.380748 
3524.732942  	69.528804 
3526.169849  	69.791589 
3527.606756  	70.056125 
3529.043663  	70.226930 
3530.480570  	70.527906 
3531.917477  	70.781333 
3533.354384  	70.980412 
3534.791291  	71.210237 
3536.228198  	71.387381 
3537.665105  	71.681824 
3539.102012  	71.989095 
3540.538919  	72.176871 
3541.975826  	72.401836 
3543.412733  	72.593065 
3544.849640  	72.779175 
3546.286547  	73.034553 
3547.723454  	73.274507 
3549.160361  	73.511743 
3550.597268  	73.724128 
3552.034175  	73.931731 
3553.471082  	74.208016 
3554.907989  	74.404588 
3556.344896  	74.589867 
3557.781804  	74.828779 
3559.218711  	75.010969 
3560.655618  	75.233538 
3562.092525  	75.492029 
3563.529432  	75.702760 
3564.966339  	75.928989 
3566.403246  	76.135043 
3567.840153  	76.407419 
3569.277060  	76.713595 
3570.713967  	76.850987 
3572.150874  	77.016772 
3573.587781  	77.205591 
3575.024688  	77.369774 
3576.461595  	77.624093 
3577.898502  	77.811109 
3579.335409  	78.019093 
3580.772316  	78.300286 
3582.209223  	78.455267 
3583.646130  	78.655903 
3585.083037  	78.856208 
3586.519944  	78.983530 
3587.956851  	79.358456 
3589.393758  	79.632949 
3590.830665  	79.682582 
3592.267572  	79.912775 
3593.704479  	80.156293 
3595.141386  	80.342929 
3596.578293  	80.533429 
3598.015200  	80.678566 
3599.452107  	80.895210 
3600.889014  	81.097749 
3602.325921  	81.273634 
3603.762828  	81.494858 
3605.199735  	81.636289 
3606.636642  	81.810007 
3608.073550  	82.036249 
3609.510457  	82.210799 
3610.947364  	82.475780 
3612.384271  	82.699794 
3613.821178  	82.922146 
3615.258085  	83.196033 
3616.694992  	83.260380 
3618.131899  	83.356272 
3619.568806  	83.660681 
3621.005713  	83.935088 
3622.442620  	84.166045 
3623.879527  	84.307198 
3625.316434  	84.425750 
3626.753341  	84.691119 
3628.190248  	84.992243 
3629.627155  	85.347814 
3631.064062  	85.586713 
3632.500969  	85.593159 
3633.937876  	85.779923 
3635.374783  	85.989120 
3636.811690  	86.123734 
3638.248597  	86.397184 
3639.685504  	86.648270 
3641.122411  	86.859932 
3642.559318  	87.140463 
3643.996225  	87.365740 
3645.433132  	87.638963 
3646.870039  	87.952665 
3648.306946  	88.166537 
3649.743853  	88.509229 
3651.180760  	88.797310 
3652.617667  	88.978819 
3654.054574  	89.176263 
3655.491481  	89.393036 
3656.928389  	89.621415 
3658.365296  	89.816301 
3659.802203  	90.044655 
3661.239110  	90.362851 
3662.676017  	90.591567 
3664.112924  	90.815278 
3665.549831  	91.038189 
3666.986738  	91.217632 
3668.423645  	91.476716 
3669.860552  	91.759195 
3671.297459  	91.908676 
3672.734366  	92.093857 
3674.171273  	92.303008 
3675.608180  	92.511112 
3677.045087  	92.708808 
3678.481994  	92.896569 
3679.918901  	93.084820 
3681.355808  	93.256864 
3682.792715  	93.395543 
3684.229622  	93.550287 
3685.666529  	93.661775 
3687.103436  	93.836584 
3688.540343  	94.078881 
3689.977250  	94.169160 
3691.414157  	94.254210 
3692.851064  	94.325802 
3694.287971  	94.390097 
3695.724878  	94.530811 
3697.161785  	94.634063 
3698.598692  	94.773172 
3700.035599  	94.950638 
3701.472506  	95.075072 
3702.909413  	95.125582 
3704.346320  	95.188561 
3705.783227  	95.249390 
3707.220135  	95.352004 
3708.657042  	95.498742 
3710.093949  	95.635689 
3711.530856  	95.722942 
3712.967763  	95.753677 
3714.404670  	95.799102 
3715.841577  	95.872320 
3717.278484  	95.951630 
3718.715391  	96.000510 
3720.152298  	96.025460 
3721.589205  	96.116618 
3723.026112  	96.211464 
3724.463019  	96.208758 
3725.899926  	96.242142 
3727.336833  	96.176256 
3728.773740  	96.117060 
3730.210647  	96.290080 
3731.647554  	96.431401 
3733.084461  	96.450109 
3734.521368  	96.616017 
3735.958275  	96.541826 
3737.395182  	96.309903 
3738.832089  	96.377210 
3740.268996  	96.377256 
3741.705903  	96.431330 
3743.142810  	96.684176 
3744.579717  	96.783905 
3746.016624  	96.525293 
3747.453531  	96.652510 
3748.890438  	96.861118 
3750.327345  	96.853720 
3751.764252  	96.710799 
3753.201159  	96.675151 
3754.638066  	96.672894 
3756.074973  	96.770247 
3757.511881  	96.899229 
3758.948788  	96.886432 
3760.385695  	96.825812 
3761.822602  	96.748080 
3763.259509  	96.767242 
3764.696416  	96.922264 
3766.133323  	96.931551 
3767.570230  	96.832466 
3769.007137  	96.868937 
3770.444044  	96.847755 
3771.880951  	96.815631 
3773.317858  	96.844831 
3774.754765  	96.838803 
3776.191672  	96.843556 
3777.628579  	96.874938 
3779.065486  	96.886969 
3780.502393  	96.862147 
3781.939300  	96.855915 
3783.376207  	96.878282 
3784.813114  	96.866381 
3786.250021  	96.815768 
3787.686928  	96.857515 
3789.123835  	96.873673 
3790.560742  	96.838536 
3791.997649  	96.839223 
3793.434556  	96.871587 
3794.871463  	96.939146 
3796.308370  	96.990261 
3797.745277  	96.882416 
3799.182184  	96.895698 
3800.619091  	97.042646 
3802.055998  	96.970195 
3803.492905  	96.827012 
3804.929812  	96.930001 
3806.366720  	97.081267 
3807.803627  	97.014298 
3809.240534  	96.919401 
3810.677441  	96.979598 
3812.114348  	96.991708 
3813.551255  	97.031661 
3814.988162  	97.194432 
3816.425069  	97.071762 
3817.861976  	96.930144 
3819.298883  	97.201505 
3820.735790  	97.356911 
3822.172697  	97.003067 
3823.609604  	96.902688 
3825.046511  	96.998113 
3826.483418  	97.037305 
3827.920325  	96.970447 
3829.357232  	97.020034 
3830.794139  	97.128792 
3832.231046  	97.066257 
3833.667953  	97.005079 
3835.104860  	97.105971 
3836.541767  	97.186851 
3837.978674  	97.203297 
3839.415581  	97.140820 
3840.852488  	97.054712 
3842.289395  	97.070988 
3843.726302  	97.094086 
3845.163209  	97.043961 
3846.600116  	97.003392 
3848.037023  	97.027208 
3849.473930  	97.091877 
3850.910837  	97.207283 
3852.347744  	97.379469 
3853.784651  	97.197587 
3855.221558  	96.911711 
3856.658466  	96.988529 
3858.095373  	97.002686 
3859.532280  	97.044744 
3860.969187  	97.132939 
3862.406094  	97.106110 
3863.843001  	97.117348 
3865.279908  	97.144678 
3866.716815  	97.038103 
3868.153722  	97.146035 
3869.590629  	97.221428 
3871.027536  	96.856408 
3872.464443  	96.967060 
3873.901350  	97.167508 
3875.338257  	97.064219 
3876.775164  	97.044147 
3878.212071  	97.167574 
3879.648978  	97.215039 
3881.085885  	97.148710 
3882.522792  	97.050199 
3883.959699  	97.102260 
3885.396606  	97.172653 
3886.833513  	97.045103 
3888.270420  	97.023234 
3889.707327  	97.108013 
3891.144234  	97.168957 
3892.581141  	97.114114 
3894.018048  	97.054945 
3895.454955  	97.069671 
3896.891862  	97.104157 
3898.328769  	97.113643 
3899.765676  	97.120549 
3901.202583  	97.104107 
3902.639490  	97.105285 
3904.076397  	97.128026 
3905.513305  	97.058332 
3906.950212  	97.034072 
3908.387119  	97.058622 
3909.824026  	97.051590 
3911.260933  	97.063173 
3912.697840  	97.053414 
3914.134747  	97.035824 
3915.571654  	97.099086 
3917.008561  	97.081105 
3918.445468  	96.986109 
3919.882375  	96.999891 
3921.319282  	97.019613 
3922.756189  	97.046229 
3924.193096  	97.071394 
3925.630003  	97.008109 
3927.066910  	97.018180 
3928.503817  	97.104286 
3929.940724  	97.110037 
3931.377631  	97.025790 
3932.814538  	96.943751 
3934.251445  	96.942811 
3935.688352  	96.999311 
3937.125259  	97.044267 
3938.562166  	97.054995 
3939.999073  	97.061499 
3941.435980  	97.092369 
3942.872887  	97.092797 
3944.309794  	97.048564 
3945.746701  	97.065533 
3947.183608  	97.094049 
3948.620515  	97.044885 
3950.057422  	97.022650 
3951.494329  	97.038411 
3952.931236  	97.054898 
3954.368143  	97.092414 
3955.805051  	97.078248 
3957.241958  	97.038774 
3958.678865  	97.052446 
3960.115772  	97.042579 
3961.552679  	97.004838 
3962.989586  	96.999906 
3964.426493  	97.010030 
3965.863400  	97.022994 
3967.300307  	97.030365 
3968.737214  	97.055093 
3970.174121  	97.080464 
3971.611028  	97.059065 
3973.047935  	97.021848 
3974.484842  	96.994715 
3975.921749  	96.998890 
3977.358656  	97.024218 
3978.795563  	97.024286 
3980.232470  	97.037322 
3981.669377  	97.060989 
3983.106284  	97.070486 
3984.543191  	97.091166 
3985.980098  	97.072978 
3987.417005  	97.049901 
3988.853912  	97.067126 
3990.290819  	97.020210 
3991.727726  	96.969939 
3993.164633  	96.999358 
3994.601540  	97.006365 
3996.038447  	97.017907 
3997.475354  	97.067824 
3998.912261  	97.078672 
4000.349168  	97.054363 