##TITLE=No Description
##DATA TYPE=INFRARED SPECTRUM
##XUNITS=1/CM
##YUNITS=%T
399.460154  	89.868054 
400.897061  	90.023758 
402.333968  	90.185314 
403.770875  	89.986184 
405.207782  	88.547964 
406.644689  	88.781302 
408.081596  	88.960686 
409.518503  	88.644887 
410.955410  	88.792381 
412.392317  	88.676681 
413.829224  	89.723805 
415.266131  	89.887872 
416.703038  	88.153687 
418.139945  	87.855231 
419.576852  	88.904481 
421.013759  	89.156164 
422.450666  	89.904724 
423.887574  	89.960386 
425.324481  	89.520653 
426.761388  	88.989853 
428.198295  	88.916652 
429.635202  	89.694151 
431.072109  	89.648941 
432.509016  	89.440741 
433.945923  	89.389405 
435.382830  	88.624124 
436.819737  	89.292869 
438.256644  	89.873878 
439.693551  	88.749024 
441.130458  	88.549181 
442.567365  	89.262926 
444.004272  	90.074878 
445.441179  	90.376616 
446.878086  	89.030603 
448.314993  	88.617178 
449.751900  	89.380579 
451.188807  	89.156637 
452.625714  	89.087067 
454.062621  	89.283526 
455.499528  	89.394066 
456.936435  	89.813040 
458.373342  	89.226222 
459.810249  	88.829368 
461.247156  	88.963280 
462.684063  	88.693403 
464.120970  	89.001525 
465.557877  	89.395497 
466.994784  	89.520981 
468.431691  	89.703216 
469.868598  	89.278312 
471.305505  	89.111855 
472.742413  	89.240180 
474.179320  	88.756266 
475.616227  	88.785071 
477.053134  	89.014348 
478.490041  	89.210490 
479.926948  	89.560125 
481.363855  	89.210061 
482.800762  	89.033238 
484.237669  	89.309585 
485.674576  	89.044456 
487.111483  	89.200091 
488.548390  	89.498240 
489.985297  	89.227386 
491.422204  	89.071629 
492.859111  	88.978079 
494.296018  	89.228978 
495.732925  	89.741989 
497.169832  	89.607418 
498.606739  	89.255538 
500.043646  	89.082722 
501.480553  	89.200460 
502.917460  	89.622071 
504.354367  	89.249673 
505.791274  	88.830201 
507.228181  	89.093769 
508.665088  	89.069579 
510.101995  	88.953863 
511.538902  	88.911552 
512.975809  	88.712347 
514.412716  	88.897052 
515.849623  	89.000503 
517.286530  	88.933533 
518.723437  	89.329802 
520.160344  	89.332399 
521.597251  	88.939101 
523.034159  	88.937594 
524.471066  	89.096438 
525.907973  	89.087376 
527.344880  	88.888509 
528.781787  	88.860529 
530.218694  	89.024535 
531.655601  	89.018188 
533.092508  	89.053515 
534.529415  	89.073477 
535.966322  	88.878124 
537.403229  	88.945670 
538.840136  	89.121463 
540.277043  	89.085085 
541.713950  	89.057152 
543.150857  	88.998233 
544.587764  	88.884729 
546.024671  	88.770282 
547.461578  	88.785426 
548.898485  	88.963609 
550.335392  	88.910273 
551.772299  	88.895948 
553.209206  	89.182436 
554.646113  	89.168651 
556.083020  	88.954769 
557.519927  	88.957280 
558.956834  	89.010822 
560.393741  	89.038986 
561.830648  	88.950470 
563.267555  	88.905310 
564.704462  	89.045711 
566.141369  	89.075010 
567.578276  	89.110553 
569.015183  	89.178648 
570.452090  	89.074957 
571.888997  	89.029360 
573.325905  	88.953164 
574.762812  	88.836032 
576.199719  	88.938156 
577.636626  	88.995544 
579.073533  	88.984120 
580.510440  	89.028979 
581.947347  	89.037295 
583.384254  	89.168224 
584.821161  	89.163694 
586.258068  	88.906498 
587.694975  	88.939157 
589.131882  	89.100002 
590.568789  	89.091684 
592.005696  	89.116928 
593.442603  	89.126586 
594.879510  	89.095040 
596.316417  	89.073938 
597.753324  	89.055968 
599.190231  	89.112721 
600.627138  	89.119237 
602.064045  	89.097102 
603.500952  	89.139171 
604.937859  	89.095062 
606.374766  	89.096522 
607.811673  	89.199663 
609.248580  	89.174515 
610.685487  	89.116536 
612.122394  	89.129196 
613.559301  	89.142573 
614.996208  	89.164941 
616.433115  	89.155520 
617.870022  	89.154558 
619.306929  	89.192926 
620.743836  	89.242274 
622.180744  	89.290654 
623.617651  	89.296615 
625.054558  	89.302722 
626.491465  	89.326925 
627.928372  	89.325880 
629.365279  	89.343258 
630.802186  	89.337348 
632.239093  	89.274877 
633.676000  	89.341291 
635.112907  	89.461550 
636.549814  	89.453190 
637.986721  	89.404459 
639.423628  	89.401716 
640.860535  	89.480397 
642.297442  	89.559640 
643.734349  	89.513087 
645.171256  	89.513737 
646.608163  	89.585549 
648.045070  	89.581066 
649.481977  	89.567310 
650.918884  	89.556699 
652.355791  	89.594688 
653.792698  	89.665008 
655.229605  	89.690977 
656.666512  	89.733034 
658.103419  	89.768418 
659.540326  	89.737628 
660.977233  	89.793268 
662.414140  	89.809884 
663.851047  	89.734665 
665.287954  	89.771623 
666.724861  	89.822793 
668.161768  	89.849628 
669.598675  	89.908972 
671.035582  	89.938387 
672.472490  	89.967553 
673.909397  	89.989706 
675.346304  	89.999134 
676.783211  	90.045292 
678.220118  	90.091050 
679.657025  	90.155333 
681.093932  	90.176087 
682.530839  	90.153125 
683.967746  	90.203650 
685.404653  	90.273890 
686.841560  	90.300770 
688.278467  	90.324650 
689.715374  	90.345844 
691.152281  	90.333412 
692.589188  	90.323383 
694.026095  	90.312863 
695.463002  	90.349115 
696.899909  	90.421464 
698.336816  	90.464900 
699.773723  	90.502441 
701.210630  	90.527108 
702.647537  	90.505334 
704.084444  	90.522089 
705.521351  	90.567993 
706.958258  	90.591312 
708.395165  	90.634828 
709.832072  	90.703482 
711.268979  	90.708452 
712.705886  	90.708406 
714.142793  	90.787711 
715.579700  	90.838527 
717.016607  	90.821303 
718.453514  	90.868967 
719.890421  	90.919291 
721.327328  	90.938443 
722.764236  	90.978928 
724.201143  	91.027708 
725.638050  	91.029218 
727.074957  	91.020031 
728.511864  	91.014445 
729.948771  	91.057254 
731.385678  	91.150704 
732.822585  	91.231338 
734.259492  	91.304812 
735.696399  	91.377741 
737.133306  	91.394599 
738.570213  	91.345886 
740.007120  	91.328340 
741.444027  	91.386360 
742.880934  	91.455349 
744.317841  	91.511695 
745.754748  	91.523317 
747.191655  	91.499151 
748.628562  	91.551489 
750.065469  	91.607560 
751.502376  	91.568585 
752.939283  	91.565742 
754.376190  	91.643855 
755.813097  	91.730373 
757.250004  	91.792577 
758.686911  	91.827134 
760.123818  	91.880208 
761.560725  	91.922436 
762.997632  	91.930220 
764.434539  	91.963967 
765.871446  	91.978377 
767.308353  	92.003887 
768.745260  	92.092333 
770.182167  	92.112957 
771.619075  	92.106978 
773.055982  	92.164369 
774.492889  	92.205065 
775.929796  	92.260984 
777.366703  	92.319520 
778.803610  	92.314071 
780.240517  	92.342630 
781.677424  	92.405958 
783.114331  	92.448343 
784.551238  	92.499672 
785.988145  	92.532470 
787.425052  	92.533596 
788.861959  	92.530886 
790.298866  	92.578401 
791.735773  	92.697953 
793.172680  	92.766647 
794.609587  	92.764024 
796.046494  	92.792828 
797.483401  	92.841571 
798.920308  	92.883828 
800.357215  	92.899576 
801.794122  	92.891436 
803.231029  	92.926072 
804.667936  	92.999628 
806.104843  	93.076414 
807.541750  	93.100937 
808.978657  	93.067103 
810.415564  	93.119132 
811.852471  	93.238428 
813.289378  	93.300538 
814.726285  	93.338220 
816.163192  	93.351736 
817.600099  	93.366679 
819.037006  	93.422102 
820.473913  	93.435158 
821.910821  	93.464386 
823.347728  	93.572173 
824.784635  	93.643599 
826.221542  	93.666416 
827.658449  	93.687136 
829.095356  	93.708382 
830.532263  	93.730602 
831.969170  	93.742487 
833.406077  	93.792839 
834.842984  	93.862493 
836.279891  	93.878365 
837.716798  	93.889483 
839.153705  	93.916173 
840.590612  	93.957906 
842.027519  	94.034966 
843.464426  	94.090503 
844.901333  	94.126151 
846.338240  	94.168541 
847.775147  	94.202062 
849.212054  	94.243284 
850.648961  	94.276632 
852.085868  	94.321824 
853.522775  	94.367778 
854.959682  	94.354909 
856.396589  	94.391136 
857.833496  	94.481895 
859.270403  	94.526122 
860.707310  	94.593732 
862.144217  	94.639304 
863.581124  	94.640455 
865.018031  	94.722493 
866.454938  	94.771298 
867.891845  	94.732144 
869.328752  	94.737601 
870.765660  	94.785844 
872.202567  	94.866883 
873.639474  	94.931297 
875.076381  	94.938434 
876.513288  	94.973094 
877.950195  	95.006306 
879.387102  	95.028483 
880.824009  	95.071225 
882.260916  	95.083401 
883.697823  	95.130369 
885.134730  	95.182824 
886.571637  	95.167056 
888.008544  	95.205262 
889.445451  	95.246127 
890.882358  	95.226226 
892.319265  	95.257135 
893.756172  	95.311035 
895.193079  	95.369588 
896.629986  	95.401011 
898.066893  	95.367050 
899.503800  	95.408091 
900.940707  	95.466664 
902.377614  	95.459969 
903.814521  	95.505959 
905.251428  	95.510026 
906.688335  	95.473160 
908.125242  	95.541081 
909.562149  	95.595051 
910.999056  	95.622103 
912.435963  	95.684647 
913.872870  	95.694628 
915.309777  	95.703807 
916.746684  	95.750988 
918.183591  	95.785941 
919.620498  	95.819659 
921.057406  	95.835738 
922.494313  	95.860075 
923.931220  	95.889411 
925.368127  	95.881882 
926.805034  	95.906299 
928.241941  	95.953450 
929.678848  	95.991471 
931.115755  	96.040063 
932.552662  	96.036779 
933.989569  	96.025581 
935.426476  	96.042635 
936.863383  	96.024955 
938.300290  	96.045413 
939.737197  	96.087723 
941.174104  	96.083517 
942.611011  	96.115641 
944.047918  	96.144279 
945.484825  	96.142549 
946.921732  	96.185141 
948.358639  	96.205337 
949.795546  	96.185236 
951.232453  	96.180332 
952.669360  	96.190291 
954.106267  	96.228832 
955.543174  	96.253405 
956.980081  	96.256336 
958.416988  	96.289150 
959.853895  	96.317479 
961.290802  	96.347345 
962.727709  	96.380439 
964.164616  	96.370613 
965.601523  	96.370993 
967.038430  	96.391631 
968.475337  	96.402925 
969.912244  	96.431116 
971.349152  	96.442133 
972.786059  	96.439408 
974.222966  	96.471817 
975.659873  	96.502768 
977.096780  	96.506426 
978.533687  	96.501610 
979.970594  	96.512448 
981.407501  	96.540226 
982.844408  	96.559538 
984.281315  	96.589386 
985.718222  	96.623160 
987.155129  	96.634067 
988.592036  	96.646408 
990.028943  	96.647291 
991.465850  	96.656849 
992.902757  	96.709186 
994.339664  	96.725781 
995.776571  	96.693103 
997.213478  	96.678503 
998.650385  	96.691210 
1000.087292  	96.711390 
1001.524199  	96.702139 
1002.961106  	96.693035 
1004.398013  	96.725163 
1005.834920  	96.740435 
1007.271827  	96.756886 
1008.708734  	96.800771 
1010.145641  	96.804293 
1011.582548  	96.798918 
1013.019455  	96.814753 
1014.456362  	96.816099 
1015.893269  	96.828967 
1017.330176  	96.847690 
1018.767083  	96.860428 
1020.203991  	96.885817 
1021.640898  	96.887886 
1023.077805  	96.872977 
1024.514712  	96.885205 
1025.951619  	96.916264 
1027.388526  	96.932342 
1028.825433  	96.905479 
1030.262340  	96.876662 
1031.699247  	96.885650 
1033.136154  	96.896342 
1034.573061  	96.898059 
1036.009968  	96.884358 
1037.446875  	96.857059 
1038.883782  	96.868468 
1040.320689  	96.899388 
1041.757596  	96.902879 
1043.194503  	96.895014 
1044.631410  	96.889503 
1046.068317  	96.901289 
1047.505224  	96.930149 
1048.942131  	96.949265 
1050.379038  	96.954662 
1051.815945  	96.960239 
1053.252852  	96.977277 
1054.689759  	96.974300 
1056.126666  	96.947413 
1057.563573  	96.960572 
1059.000480  	96.989150 
1060.437387  	96.989326 
1061.874294  	96.980985 
1063.311201  	96.947810 
1064.748108  	96.929611 
1066.185015  	96.960616 
1067.621922  	96.974434 
1069.058829  	96.981126 
1070.495737  	96.989413 
1071.932644  	96.956685 
1073.369551  	96.928023 
1074.806458  	96.919956 
1076.243365  	96.915584 
1077.680272  	96.930957 
1079.117179  	96.941381 
1080.554086  	96.941583 
1081.990993  	96.943241 
1083.427900  	96.942890 
1084.864807  	96.947235 
1086.301714  	96.934949 
1087.738621  	96.928555 
1089.175528  	96.943503 
1090.612435  	96.924115 
1092.049342  	96.907111 
1093.486249  	96.928317 
1094.923156  	96.941661 
1096.360063  	96.950261 
1097.796970  	96.943587 
1099.233877  	96.929667 
1100.670784  	96.947280 
1102.107691  	96.953794 
1103.544598  	96.948595 
1104.981505  	96.946670 
1106.418412  	96.924959 
1107.855319  	96.939360 
1109.292226  	96.980454 
1110.729133  	96.984578 
1112.166040  	96.982649 
1113.602947  	96.978001 
1115.039854  	96.974421 
1116.476761  	96.982460 
1117.913668  	96.962786 
1119.350575  	96.958628 
1120.787483  	96.982976 
1122.224390  	96.969962 
1123.661297  	96.957012 
1125.098204  	96.969617 
1126.535111  	96.977903 
1127.972018  	96.988758 
1129.408925  	96.984098 
1130.845832  	96.973151 
1132.282739  	96.986288 
1133.719646  	96.995840 
1135.156553  	96.991456 
1136.593460  	96.987513 
1138.030367  	96.993690 
1139.467274  	96.999818 
1140.904181  	96.981761 
1142.341088  	96.972898 
1143.777995  	96.975714 
1145.214902  	96.950022 
1146.651809  	96.941341 
1148.088716  	96.965794 
1149.525623  	96.979866 
1150.962530  	96.991615 
1152.399437  	96.990796 
1153.836344  	96.963412 
1155.273251  	96.942313 
1156.710158  	96.941551 
1158.147065  	96.950628 
1159.583972  	96.948565 
1161.020879  	96.941602 
1162.457786  	96.952503 
1163.894693  	96.955906 
1165.331600  	96.956381 
1166.768507  	96.966439 
1168.205414  	96.943284 
1169.642322  	96.925975 
1171.079229  	96.960076 
1172.516136  	96.971143 
1173.953043  	96.947894 
1175.389950  	96.952205 
1176.826857  	96.967276 
1178.263764  	96.966827 
1179.700671  	96.966793 
1181.137578  	96.968652 
1182.574485  	96.968152 
1184.011392  	96.969049 
1185.448299  	96.963244 
1186.885206  	96.944282 
1188.322113  	96.923717 
1189.759020  	96.914800 
1191.195927  	96.928486 
1192.632834  	96.955913 
1194.069741  	96.964555 
1195.506648  	96.956276 
1196.943555  	96.955179 
1198.380462  	96.949803 
1199.817369  	96.930574 
1201.254276  	96.916330 
1202.691183  	96.921087 
1204.128090  	96.928406 
1205.564997  	96.917461 
1207.001904  	96.911555 
1208.438811  	96.919617 
1209.875718  	96.910271 
1211.312625  	96.903488 
1212.749532  	96.923274 
1214.186439  	96.930981 
1215.623346  	96.914284 
1217.060253  	96.905615 
1218.497160  	96.919687 
1219.934068  	96.928977 
1221.370975  	96.909927 
1222.807882  	96.899222 
1224.244789  	96.914964 
1225.681696  	96.920223 
1227.118603  	96.910441 
1228.555510  	96.897598 
1229.992417  	96.886801 
1231.429324  	96.895044 
1232.866231  	96.904765 
1234.303138  	96.892651 
1235.740045  	96.879253 
1237.176952  	96.873657 
1238.613859  	96.859735 
1240.050766  	96.846382 
1241.487673  	96.850780 
1242.924580  	96.849858 
1244.361487  	96.835577 
1245.798394  	96.840598 
1247.235301  	96.847696 
1248.672208  	96.831574 
1250.109115  	96.816550 
1251.546022  	96.801913 
1252.982929  	96.791106 
1254.419836  	96.798529 
1255.856743  	96.797525 
1257.293650  	96.789019 
1258.730557  	96.786725 
1260.167464  	96.787050 
1261.604371  	96.803828 
1263.041278  	96.806013 
1264.478185  	96.779949 
1265.915092  	96.778340 
1267.351999  	96.785992 
1268.788907  	96.771157 
1270.225814  	96.758048 
1271.662721  	96.747810 
1273.099628  	96.740043 
1274.536535  	96.736286 
1275.973442  	96.730599 
1277.410349  	96.731500 
1278.847256  	96.720934 
1280.284163  	96.699836 
1281.721070  	96.695299 
1283.157977  	96.694109 
1284.594884  	96.701737 
1286.031791  	96.725674 
1287.468698  	96.737120 
1288.905605  	96.741096 
1290.342512  	96.751806 
1291.779419  	96.768960 
1293.216326  	96.785308 
1294.653233  	96.781991 
1296.090140  	96.783574 
1297.527047  	96.794004 
1298.963954  	96.779759 
1300.400861  	96.774907 
1301.837768  	96.794531 
1303.274675  	96.804620 
1304.711582  	96.812052 
1306.148489  	96.812299 
1307.585396  	96.821877 
1309.022303  	96.834051 
1310.459210  	96.837213 
1311.896117  	96.854032 
1313.333024  	96.853867 
1314.769931  	96.835454 
1316.206838  	96.829814 
1317.643745  	96.848534 
1319.080653  	96.849037 
1320.517560  	96.841535 
1321.954467  	96.846668 
1323.391374  	96.846877 
1324.828281  	96.851798 
1326.265188  	96.846391 
1327.702095  	96.840997 
1329.139002  	96.836659 
1330.575909  	96.827049 
1332.012816  	96.819993 
1333.449723  	96.815941 
1334.886630  	96.810360 
1336.323537  	96.804914 
1337.760444  	96.785288 
1339.197351  	96.760124 
1340.634258  	96.742485 
1342.071165  	96.747265 
1343.508072  	96.755272 
1344.944979  	96.743370 
1346.381886  	96.723487 
1347.818793  	96.726813 
1349.255700  	96.712370 
1350.692607  	96.691963 
1352.129514  	96.686615 
1353.566421  	96.668390 
1355.003328  	96.651370 
1356.440235  	96.635304 
1357.877142  	96.604236 
1359.314049  	96.597571 
1360.750956  	96.583663 
1362.187863  	96.573896 
1363.624770  	96.540697 
1365.061677  	96.523691 
1366.498584  	96.511808 
1367.935491  	96.469421 
1369.372399  	96.423295 
1370.809306  	96.409961 
1372.246213  	96.372227 
1373.683120  	96.306513 
1375.120027  	96.261329 
1376.556934  	96.249496 
1377.993841  	96.223469 
1379.430748  	96.164870 
1380.867655  	96.123785 
1382.304562  	96.092711 
1383.741469  	96.052664 
1385.178376  	96.038130 
1386.615283  	96.031839 
1388.052190  	95.999765 
1389.489097  	95.975426 
1390.926004  	95.955072 
1392.362911  	95.969134 
1393.799818  	96.001960 
1395.236725  	96.012042 
1396.673632  	96.031175 
1398.110539  	96.083595 
1399.547446  	96.105957 
1400.984353  	96.121471 
1402.421260  	96.165199 
1403.858167  	96.186690 
1405.295074  	96.176105 
1406.731981  	96.197153 
1408.168888  	96.230182 
1409.605795  	96.255436 
1411.042702  	96.276917 
1412.479609  	96.300937 
1413.916516  	96.335701 
1415.353423  	96.346872 
1416.790330  	96.359082 
1418.227238  	96.416130 
1419.664145  	96.437433 
1421.101052  	96.445129 
1422.537959  	96.484943 
1423.974866  	96.500550 
1425.411773  	96.509326 
1426.848680  	96.558807 
1428.285587  	96.572020 
1429.722494  	96.570343 
1431.159401  	96.581700 
1432.596308  	96.593745 
1434.033215  	96.599137 
1435.470122  	96.605257 
1436.907029  	96.595189 
1438.343936  	96.595502 
1439.780843  	96.632943 
1441.217750  	96.648378 
1442.654657  	96.647785 
1444.091564  	96.658363 
1445.528471  	96.662431 
1446.965378  	96.663238 
1448.402285  	96.647367 
1449.839192  	96.639802 
1451.276099  	96.665289 
1452.713006  	96.656933 
1454.149913  	96.664234 
1455.586820  	96.712785 
1457.023727  	96.700806 
1458.460634  	96.629689 
1459.897541  	96.649432 
1461.334448  	96.668967 
1462.771355  	96.687803 
1464.208262  	96.694618 
1465.645169  	96.661058 
1467.082076  	96.647657 
1468.518984  	96.665437 
1469.955891  	96.686667 
1471.392798  	96.735146 
1472.829705  	96.690520 
1474.266612  	96.655974 
1475.703519  	96.671606 
1477.140426  	96.646389 
1478.577333  	96.658852 
1480.014240  	96.679572 
1481.451147  	96.654282 
1482.888054  	96.636071 
1484.324961  	96.654231 
1485.761868  	96.652343 
1487.198775  	96.656318 
1488.635682  	96.637986 
1490.072589  	96.604984 
1491.509496  	96.569509 
1492.946403  	96.554536 
1494.383310  	96.588741 
1495.820217  	96.586838 
1497.257124  	96.532643 
1498.694031  	96.514187 
1500.130938  	96.505552 
1501.567845  	96.498918 
1503.004752  	96.506150 
1504.441659  	96.525108 
1505.878566  	96.555687 
1507.315473  	96.453255 
1508.752380  	96.375505 
1510.189287  	96.412357 
1511.626194  	96.433994 
1513.063101  	96.412507 
1514.500008  	96.415635 
1515.936915  	96.398970 
1517.373822  	96.311593 
1518.810730  	96.292837 
1520.247637  	96.323307 
1521.684544  	96.299028 
1523.121451  	96.257282 
1524.558358  	96.258766 
1525.995265  	96.225722 
1527.432172  	96.177751 
1528.869079  	96.172471 
1530.305986  	96.150804 
1531.742893  	96.118648 
1533.179800  	96.097296 
1534.616707  	95.983953 
1536.053614  	95.960968 
1537.490521  	95.980287 
1538.927428  	95.940439 
1540.364335  	95.830821 
1541.801242  	95.800723 
1543.238149  	95.737556 
1544.675056  	95.682611 
1546.111963  	95.624694 
1547.548870  	95.594896 
1548.985777  	95.554215 
1550.422684  	95.412895 
1551.859591  	95.365730 
1553.296498  	95.352195 
1554.733405  	95.256018 
1556.170312  	95.218863 
1557.607219  	95.236133 
1559.044126  	95.054889 
1560.481033  	94.926757 
1561.917940  	94.948181 
1563.354847  	94.932586 
1564.791754  	94.888913 
1566.228661  	94.804585 
1567.665569  	94.804980 
1569.102476  	94.785453 
1570.539383  	94.673223 
1571.976290  	94.660026 
1573.413197  	94.657979 
1574.850104  	94.643381 
1576.287011  	94.621729 
1577.723918  	94.588711 
1579.160825  	94.579134 
1580.597732  	94.581072 
1582.034639  	94.560127 
1583.471546  	94.557494 
1584.908453  	94.544945 
1586.345360  	94.513665 
1587.782267  	94.511921 
1589.219174  	94.511903 
1590.656081  	94.501145 
1592.092988  	94.488770 
1593.529895  	94.465977 
1594.966802  	94.449700 
1596.403709  	94.441751 
1597.840616  	94.433505 
1599.277523  	94.415410 
1600.714430  	94.377615 
1602.151337  	94.321398 
1603.588244  	94.274922 
1605.025151  	94.241672 
1606.462058  	94.205274 
1607.898965  	94.133785 
1609.335872  	94.054103 
1610.772779  	94.031669 
1612.209686  	93.983952 
1613.646593  	93.933355 
1615.083500  	93.910303 
1616.520407  	93.849544 
1617.957315  	93.736818 
1619.394222  	93.658411 
1620.831129  	93.604581 
1622.268036  	93.562898 
1623.704943  	93.500814 
1625.141850  	93.393631 
1626.578757  	93.323038 
1628.015664  	93.256672 
1629.452571  	93.213973 
1630.889478  	93.177020 
1632.326385  	93.111456 
1633.763292  	93.074754 
1635.200199  	93.088902 
1636.637106  	93.065645 
1638.074013  	93.066434 
1639.510920  	93.044509 
1640.947827  	93.036499 
1642.384734  	93.082785 
1643.821641  	93.131133 
1645.258548  	93.198409 
1646.695455  	93.229586 
1648.132362  	93.172243 
1649.569269  	93.270661 
1651.006176  	93.397760 
1652.443083  	93.453888 
1653.879990  	93.373691 
1655.316897  	93.512982 
1656.753804  	93.618245 
1658.190711  	93.707863 
1659.627618  	93.756817 
1661.064525  	93.837331 
1662.501432  	93.924060 
1663.938339  	93.990080 
1665.375246  	94.087725 
1666.812154  	94.183582 
1668.249061  	94.263368 
1669.685968  	94.354575 
1671.122875  	94.398649 
1672.559782  	94.493590 
1673.996689  	94.625703 
1675.433596  	94.703422 
1676.870503  	94.765641 
1678.307410  	94.867950 
1679.744317  	94.942435 
1681.181224  	95.016447 
1682.618131  	95.125751 
1684.055038  	95.199205 
1685.491945  	95.269089 
1686.928852  	95.361728 
1688.365759  	95.449664 
1689.802666  	95.555226 
1691.239573  	95.625988 
1692.676480  	95.700998 
1694.113387  	95.783953 
1695.550294  	95.875666 
1696.987201  	95.919694 
1698.424108  	95.995061 
1699.861015  	96.085052 
1701.297922  	96.077757 
1702.734829  	96.122617 
1704.171736  	96.219346 
1705.608643  	96.258921 
1707.045550  	96.297089 
1708.482457  	96.374735 
1709.919364  	96.420388 
1711.356271  	96.477246 
1712.793178  	96.546395 
1714.230085  	96.588511 
1715.666992  	96.637672 
1717.103900  	96.706530 
1718.540807  	96.688259 
1719.977714  	96.744894 
1721.414621  	96.828210 
1722.851528  	96.883677 
1724.288435  	96.928387 
1725.725342  	96.967463 
1727.162249  	97.015859 
1728.599156  	97.037390 
1730.036063  	97.047171 
1731.472970  	97.081927 
1732.909877  	97.141755 
1734.346784  	97.118677 
1735.783691  	97.101110 
1737.220598  	97.168998 
1738.657505  	97.235857 
1740.094412  	97.248523 
1741.531319  	97.270719 
1742.968226  	97.305432 
1744.405133  	97.280159 
1745.842040  	97.306097 
1747.278947  	97.359111 
1748.715854  	97.338362 
1750.152761  	97.358675 
1751.589668  	97.386187 
1753.026575  	97.389319 
1754.463482  	97.443268 
1755.900389  	97.493515 
1757.337296  	97.457387 
1758.774203  	97.435578 
1760.211110  	97.466399 
1761.648017  	97.494148 
1763.084924  	97.486424 
1764.521831  	97.485689 
1765.958738  	97.519261 
1767.395646  	97.526817 
1768.832553  	97.515816 
1770.269460  	97.577111 
1771.706367  	97.604158 
1773.143274  	97.531832 
1774.580181  	97.551503 
1776.017088  	97.580022 
1777.453995  	97.573016 
1778.890902  	97.593581 
1780.327809  	97.600104 
1781.764716  	97.596110 
1783.201623  	97.614736 
1784.638530  	97.625408 
1786.075437  	97.621752 
1787.512344  	97.623676 
1788.949251  	97.638838 
1790.386158  	97.664228 
1791.823065  	97.670767 
1793.259972  	97.653002 
1794.696879  	97.671538 
1796.133786  	97.673176 
1797.570693  	97.670418 
1799.007600  	97.684000 
1800.444507  	97.691760 
1801.881414  	97.668290 
1803.318321  	97.672583 
1804.755228  	97.694517 
1806.192135  	97.702609 
1807.629042  	97.725367 
1809.065949  	97.737910 
1810.502856  	97.742683 
1811.939763  	97.753039 
1813.376670  	97.776298 
1814.813577  	97.793307 
1816.250485  	97.799388 
1817.687392  	97.788252 
1819.124299  	97.792595 
1820.561206  	97.798085 
1821.998113  	97.778592 
1823.435020  	97.788507 
1824.871927  	97.770703 
1826.308834  	97.735556 
1827.745741  	97.776730 
1829.182648  	97.808939 
1830.619555  	97.758643 
1832.056462  	97.769573 
1833.493369  	97.786180 
1834.930276  	97.782844 
1836.367183  	97.809830 
1837.804090  	97.839207 
1839.240997  	97.862834 
1840.677904  	97.852446 
1842.114811  	97.837047 
1843.551718  	97.846755 
1844.988625  	97.825110 
1846.425532  	97.789524 
1847.862439  	97.786864 
1849.299346  	97.785776 
1850.736253  	97.799145 
1852.173160  	97.816408 
1853.610067  	97.792515 
1855.046974  	97.790539 
1856.483881  	97.848463 
1857.920788  	97.865054 
1859.357695  	97.820370 
1860.794602  	97.786675 
1862.231509  	97.788976 
1863.668416  	97.808687 
1865.105323  	97.822018 
1866.542231  	97.844573 
1867.979138  	97.844988 
1869.416045  	97.813186 
1870.852952  	97.815995 
1872.289859  	97.817269 
1873.726766  	97.820565 
1875.163673  	97.846005 
1876.600580  	97.873991 
1878.037487  	97.865059 
1879.474394  	97.842388 
1880.911301  	97.839579 
1882.348208  	97.832553 
1883.785115  	97.815906 
1885.222022  	97.805845 
1886.658929  	97.809304 
1888.095836  	97.824709 
1889.532743  	97.823439 
1890.969650  	97.794183 
1892.406557  	97.824618 
1893.843464  	97.854435 
1895.280371  	97.835961 
1896.717278  	97.808491 
1898.154185  	97.788164 
1899.591092  	97.799321 
1901.027999  	97.859752 
1902.464906  	97.828096 
1903.901813  	97.761818 
1905.338720  	97.759994 
1906.775627  	97.748923 
1908.212534  	97.808071 
1909.649441  	97.900938 
1911.086348  	97.870838 
1912.523255  	97.847602 
1913.960162  	97.825053 
1915.397069  	97.787553 
1916.833977  	97.819440 
1918.270884  	97.824860 
1919.707791  	97.792834 
1921.144698  	97.795598 
1922.581605  	97.809275 
1924.018512  	97.832266 
1925.455419  	97.859978 
1926.892326  	97.765161 
1928.329233  	97.733405 
1929.766140  	97.786355 
1931.203047  	97.864369 
1932.639954  	97.910005 
1934.076861  	97.839088 
1935.513768  	97.774624 
1936.950675  	97.815440 
1938.387582  	97.824358 
1939.824489  	97.885996 
1941.261396  	97.996673 
1942.698303  	97.921857 
1944.135210  	97.814591 
1945.572117  	97.902885 
1947.009024  	97.938288 
1948.445931  	97.939986 
1949.882838  	97.861912 
1951.319745  	97.877668 
1952.756652  	97.897519 
1954.193559  	97.931759 
1955.630466  	98.081500 
1957.067373  	98.125658 
1958.504280  	97.925186 
1959.941187  	97.681024 
1961.378094  	97.619706 
1962.815001  	97.701927 
1964.251908  	97.824507 
1965.688816  	97.952960 
1967.125723  	97.988486 
1968.562630  	97.867398 
1969.999537  	97.958546 
1971.436444  	98.131517 
1972.873351  	97.960459 
1974.310258  	97.775075 
1975.747165  	97.765676 
1977.184072  	97.545630 
1978.620979  	97.299569 
1980.057886  	97.322178 
1981.494793  	97.363255 
1982.931700  	97.470125 
1984.368607  	97.617760 
1985.805514  	97.643229 
1987.242421  	97.634762 
1988.679328  	97.668849 
1990.116235  	97.746331 
1991.553142  	97.779176 
1992.990049  	97.673604 
1994.426956  	97.591824 
1995.863863  	97.622822 
1997.300770  	97.630595 
1998.737677  	97.645226 
2000.174584  	97.727993 
2001.611491  	97.697004 
2003.048398  	97.666220 
2004.485305  	97.728960 
2005.922212  	97.612815 
2007.359119  	97.391923 
2008.796026  	97.379975 
2010.232933  	97.448946 
2011.669840  	97.401219 
2013.106747  	97.420298 
2014.543654  	97.584715 
2015.980562  	97.659404 
2017.417469  	97.728086 
2018.854376  	97.948783 
2020.291283  	97.955002 
2021.728190  	97.565590 
2023.165097  	97.342687 
2024.602004  	97.477093 
2026.038911  	97.638027 
2027.475818  	97.611033 
2028.912725  	97.491533 
2030.349632  	97.477875 
2031.786539  	97.480468 
2033.223446  	97.402391 
2034.660353  	97.473429 
2036.097260  	97.568194 
2037.534167  	97.475769 
2038.971074  	97.368171 
2040.407981  	97.252354 
2041.844888  	97.210305 
2043.281795  	97.281782 
2044.718702  	97.292925 
2046.155609  	97.444257 
2047.592516  	97.634709 
2049.029423  	97.323296 
2050.466330  	97.029508 
2051.903237  	97.261580 
2053.340144  	97.451090 
2054.777051  	97.332479 
2056.213958  	97.234446 
2057.650865  	97.257625 
2059.087772  	97.342270 
2060.524679  	97.414604 
2061.961586  	97.330049 
2063.398493  	97.202957 
2064.835401  	97.288588 
2066.272308  	97.428192 
2067.709215  	97.349729 
2069.146122  	97.238588 
2070.583029  	97.220731 
2072.019936  	97.201180 
2073.456843  	97.302232 
2074.893750  	97.459152 
2076.330657  	97.382680 
2077.767564  	97.251464 
2079.204471  	97.275685 
2080.641378  	97.305423 
2082.078285  	97.280686 
2083.515192  	97.282309 
2084.952099  	97.326638 
2086.389006  	97.342257 
2087.825913  	97.306391 
2089.262820  	97.326710 
2090.699727  	97.360003 
2092.136634  	97.339506 
2093.573541  	97.386681 
2095.010448  	97.440797 
2096.447355  	97.415163 
2097.884262  	97.421977 
2099.321169  	97.399014 
2100.758076  	97.306218 
2102.194983  	97.277727 
2103.631890  	97.329132 
2105.068797  	97.375345 
2106.505704  	97.353570 
2107.942611  	97.305169 
2109.379518  	97.305054 
2110.816425  	97.316486 
2112.253332  	97.354871 
2113.690239  	97.426812 
2115.127147  	97.444309 
2116.564054  	97.442414 
2118.000961  	97.476128 
2119.437868  	97.534052 
2120.874775  	97.566378 
2122.311682  	97.505502 
2123.748589  	97.479407 
2125.185496  	97.532670 
2126.622403  	97.533049 
2128.059310  	97.555779 
2129.496217  	97.606447 
2130.933124  	97.638991 
2132.370031  	97.787229 
2133.806938  	97.877403 
2135.243845  	97.780587 
2136.680752  	97.677276 
2138.117659  	97.578901 
2139.554566  	97.652187 
2140.991473  	97.833217 
2142.428380  	97.810516 
2143.865287  	97.833152 
2145.302194  	97.758883 
2146.739101  	97.435256 
2148.176008  	97.537224 
2149.612915  	97.833690 
2151.049822  	97.770231 
2152.486729  	97.826046 
2153.923636  	97.914127 
2155.360543  	97.847367 
2156.797450  	98.033651 
2158.234357  	97.960444 
2159.671264  	97.277789 
2161.108171  	97.086969 
2162.545078  	97.306686 
2163.981985  	97.227466 
2165.418893  	97.164598 
2166.855800  	97.334818 
2168.292707  	97.235073 
2169.729614  	96.870176 
2171.166521  	96.906737 
2172.603428  	97.407818 
2174.040335  	97.706542 
2175.477242  	97.550965 
2176.914149  	97.348451 
2178.351056  	97.385320 
2179.787963  	97.380827 
2181.224870  	97.254000 
2182.661777  	97.198864 
2184.098684  	97.126646 
2185.535591  	97.089780 
2186.972498  	97.190134 
2188.409405  	97.285695 
2189.846312  	97.417262 
2191.283219  	97.497818 
2192.720126  	97.413278 
2194.157033  	97.454310 
2195.593940  	97.494744 
2197.030847  	97.384064 
2198.467754  	97.437904 
2199.904661  	97.491024 
2201.341568  	97.357997 
2202.778475  	97.403516 
2204.215382  	97.632643 
2205.652289  	97.699882 
2207.089196  	97.523674 
2208.526103  	97.337795 
2209.963010  	97.324521 
2211.399917  	97.370621 
2212.836824  	97.395880 
2214.273732  	97.426997 
2215.710639  	97.392762 
2217.147546  	97.368529 
2218.584453  	97.397330 
2220.021360  	97.369730 
2221.458267  	97.362764 
2222.895174  	97.439270 
2224.332081  	97.541904 
2225.768988  	97.636455 
2227.205895  	97.590967 
2228.642802  	97.417655 
2230.079709  	97.361435 
2231.516616  	97.473268 
2232.953523  	97.534779 
2234.390430  	97.483145 
2235.827337  	97.451180 
2237.264244  	97.443190 
2238.701151  	97.457740 
2240.138058  	97.522842 
2241.574965  	97.466519 
2243.011872  	97.327149 
2244.448779  	97.380066 
2245.885686  	97.547953 
2247.322593  	97.633197 
2248.759500  	97.635595 
2250.196407  	97.590277 
2251.633314  	97.562785 
2253.070221  	97.531102 
2254.507128  	97.479079 
2255.944035  	97.439081 
2257.380942  	97.369304 
2258.817849  	97.382525 
2260.254756  	97.505908 
2261.691663  	97.575922 
2263.128570  	97.641077 
2264.565478  	97.606356 
2266.002385  	97.406121 
2267.439292  	97.397271 
2268.876199  	97.510651 
2270.313106  	97.468467 
2271.750013  	97.429464 
2273.186920  	97.399551 
2274.623827  	97.376987 
2276.060734  	97.464012 
2277.497641  	97.444679 
2278.934548  	97.353089 
2280.371455  	97.413891 
2281.808362  	97.451603 
2283.245269  	97.363389 
2284.682176  	97.292331 
2286.119083  	97.302841 
2287.555990  	97.358244 
2288.992897  	97.355138 
2290.429804  	97.324612 
2291.866711  	97.378506 
2293.303618  	97.444786 
2294.740525  	97.466981 
2296.177432  	97.483590 
2297.614339  	97.466947 
2299.051246  	97.410763 
2300.488153  	97.388758 
2301.925060  	97.434611 
2303.361967  	97.476864 
2304.798874  	97.472869 
2306.235781  	97.473806 
2307.672688  	97.492440 
2309.109595  	97.475537 
2310.546502  	97.472053 
2311.983409  	97.484187 
2313.420317  	97.487097 
2314.857224  	97.497049 
2316.294131  	97.486503 
2317.731038  	97.475161 
2319.167945  	97.481374 
2320.604852  	97.476654 
2322.041759  	97.436615 
2323.478666  	97.413344 
2324.915573  	97.482343 
2326.352480  	97.601643 
2327.789387  	97.670000 
2329.226294  	97.705540 
2330.663201  	97.710852 
2332.100108  	97.688242 
2333.537015  	97.730480 
2334.973922  	97.807650 
2336.410829  	97.793587 
2337.847736  	97.741763 
2339.284643  	97.734700 
2340.721550  	97.757806 
2342.158457  	97.740124 
2343.595364  	97.706001 
2345.032271  	97.724524 
2346.469178  	97.710445 
2347.906085  	97.664839 
2349.342992  	97.699455 
2350.779899  	97.741805 
2352.216806  	97.709014 
2353.653713  	97.697812 
2355.090620  	97.716487 
2356.527527  	97.707478 
2357.964434  	97.711945 
2359.401341  	97.676571 
2360.838248  	97.635605 
2362.275155  	97.670961 
2363.712063  	97.676961 
2365.148970  	97.681533 
2366.585877  	97.751661 
2368.022784  	97.777035 
2369.459691  	97.723630 
2370.896598  	97.705456 
2372.333505  	97.769383 
2373.770412  	97.800111 
2375.207319  	97.744259 
2376.644226  	97.691723 
2378.081133  	97.725657 
2379.518040  	97.748069 
2380.954947  	97.726924 
2382.391854  	97.701933 
2383.828761  	97.698421 
2385.265668  	97.701426 
2386.702575  	97.712746 
2388.139482  	97.726669 
2389.576389  	97.725311 
2391.013296  	97.700256 
2392.450203  	97.699978 
2393.887110  	97.720905 
2395.324017  	97.712827 
2396.760924  	97.711781 
2398.197831  	97.729321 
2399.634738  	97.724495 
2401.071645  	97.745015 
2402.508552  	97.801283 
2403.945459  	97.807862 
2405.382366  	97.769097 
2406.819273  	97.745527 
2408.256180  	97.736050 
2409.693087  	97.717305 
2411.129994  	97.706513 
2412.566901  	97.740164 
2414.003809  	97.781216 
2415.440716  	97.784618 
2416.877623  	97.780626 
2418.314530  	97.768247 
2419.751437  	97.759020 
2421.188344  	97.798464 
2422.625251  	97.826455 
2424.062158  	97.807786 
2425.499065  	97.785992 
2426.935972  	97.760071 
2428.372879  	97.762028 
2429.809786  	97.777199 
2431.246693  	97.730539 
2432.683600  	97.693283 
2434.120507  	97.716739 
2435.557414  	97.739602 
2436.994321  	97.747825 
2438.431228  	97.723832 
2439.868135  	97.717831 
2441.305042  	97.789341 
2442.741949  	97.809574 
2444.178856  	97.768471 
2445.615763  	97.787590 
2447.052670  	97.791881 
2448.489577  	97.764845 
2449.926484  	97.793612 
2451.363391  	97.789729 
2452.800298  	97.726830 
2454.237205  	97.726544 
2455.674112  	97.774430 
2457.111019  	97.789433 
2458.547926  	97.779576 
2459.984833  	97.754019 
2461.421740  	97.722154 
2462.858648  	97.746170 
2464.295555  	97.806342 
2465.732462  	97.810678 
2467.169369  	97.799964 
2468.606276  	97.823629 
2470.043183  	97.811086 
2471.480090  	97.782640 
2472.916997  	97.798268 
2474.353904  	97.808635 
2475.790811  	97.797792 
2477.227718  	97.791070 
2478.664625  	97.792454 
2480.101532  	97.812835 
2481.538439  	97.825454 
2482.975346  	97.824038 
2484.412253  	97.845262 
2485.849160  	97.852539 
2487.286067  	97.816503 
2488.722974  	97.789974 
2490.159881  	97.795429 
2491.596788  	97.796992 
2493.033695  	97.781407 
2494.470602  	97.787570 
2495.907509  	97.823483 
2497.344416  	97.826140 
2498.781323  	97.791456 
2500.218230  	97.783735 
2501.655137  	97.792551 
2503.092044  	97.775249 
2504.528951  	97.771704 
2505.965858  	97.817564 
2507.402765  	97.854710 
2508.839672  	97.832001 
2510.276579  	97.788254 
2511.713486  	97.775975 
2513.150394  	97.787298 
2514.587301  	97.790511 
2516.024208  	97.804915 
2517.461115  	97.843602 
2518.898022  	97.857697 
2520.334929  	97.867925 
2521.771836  	97.910427 
2523.208743  	97.884729 
2524.645650  	97.786553 
2526.082557  	97.758042 
2527.519464  	97.797330 
2528.956371  	97.818303 
2530.393278  	97.812888 
2531.830185  	97.798851 
2533.267092  	97.799823 
2534.703999  	97.804883 
2536.140906  	97.794503 
2537.577813  	97.799789 
2539.014720  	97.812272 
2540.451627  	97.811523 
2541.888534  	97.821340 
2543.325441  	97.820970 
2544.762348  	97.796342 
2546.199255  	97.784460 
2547.636162  	97.780817 
2549.073069  	97.772059 
2550.509976  	97.779931 
2551.946883  	97.791939 
2553.383790  	97.783957 
2554.820697  	97.778021 
2556.257604  	97.775447 
2557.694511  	97.750986 
2559.131418  	97.729595 
2560.568325  	97.722149 
2562.005232  	97.724971 
2563.442140  	97.774886 
2564.879047  	97.819873 
2566.315954  	97.799338 
2567.752861  	97.790751 
2569.189768  	97.798989 
2570.626675  	97.778119 
2572.063582  	97.766589 
2573.500489  	97.744892 
2574.937396  	97.731644 
2576.374303  	97.785658 
2577.811210  	97.802931 
2579.248117  	97.756008 
2580.685024  	97.754365 
2582.121931  	97.769885 
2583.558838  	97.756386 
2584.995745  	97.746163 
2586.432652  	97.737659 
2587.869559  	97.729968 
2589.306466  	97.727771 
2590.743373  	97.729740 
2592.180280  	97.729156 
2593.617187  	97.701653 
2595.054094  	97.683983 
2596.491001  	97.706270 
2597.927908  	97.719970 
2599.364815  	97.733231 
2600.801722  	97.759122 
2602.238629  	97.739026 
2603.675536  	97.698195 
2605.112443  	97.703538 
2606.549350  	97.714427 
2607.986257  	97.698765 
2609.423164  	97.699781 
2610.860071  	97.705395 
2612.296979  	97.677623 
2613.733886  	97.652692 
2615.170793  	97.648909 
2616.607700  	97.649714 
2618.044607  	97.670016 
2619.481514  	97.688259 
2620.918421  	97.680455 
2622.355328  	97.675577 
2623.792235  	97.662710 
2625.229142  	97.642562 
2626.666049  	97.654671 
2628.102956  	97.666270 
2629.539863  	97.652865 
2630.976770  	97.650145 
2632.413677  	97.647105 
2633.850584  	97.625512 
2635.287491  	97.625545 
2636.724398  	97.660761 
2638.161305  	97.667185 
2639.598212  	97.627892 
2641.035119  	97.621671 
2642.472026  	97.643353 
2643.908933  	97.631948 
2645.345840  	97.630052 
2646.782747  	97.646702 
2648.219654  	97.636003 
2649.656561  	97.633401 
2651.093468  	97.646369 
2652.530375  	97.638306 
2653.967282  	97.626235 
2655.404189  	97.619492 
2656.841096  	97.624702 
2658.278003  	97.650157 
2659.714910  	97.659257 
2661.151817  	97.655588 
2662.588725  	97.674533 
2664.025632  	97.694746 
2665.462539  	97.696124 
2666.899446  	97.695570 
2668.336353  	97.701269 
2669.773260  	97.703182 
2671.210167  	97.698900 
2672.647074  	97.702757 
2674.083981  	97.712277 
2675.520888  	97.717461 
2676.957795  	97.725535 
2678.394702  	97.728302 
2679.831609  	97.721207 
2681.268516  	97.719656 
2682.705423  	97.714605 
2684.142330  	97.699785 
2685.579237  	97.696817 
2687.016144  	97.707277 
2688.453051  	97.710671 
2689.889958  	97.705708 
2691.326865  	97.708281 
2692.763772  	97.713872 
2694.200679  	97.715402 
2695.637586  	97.725269 
2697.074493  	97.723743 
2698.511400  	97.695016 
2699.948307  	97.680235 
2701.385214  	97.687035 
2702.822121  	97.689073 
2704.259028  	97.698628 
2705.695935  	97.715234 
2707.132842  	97.715961 
2708.569749  	97.699925 
2710.006656  	97.681617 
2711.443564  	97.682094 
2712.880471  	97.693747 
2714.317378  	97.682361 
2715.754285  	97.654918 
2717.191192  	97.645338 
2718.628099  	97.658655 
2720.065006  	97.671833 
2721.501913  	97.663081 
2722.938820  	97.638407 
2724.375727  	97.625386 
2725.812634  	97.642510 
2727.249541  	97.662283 
2728.686448  	97.646000 
2730.123355  	97.627820 
2731.560262  	97.634842 
2732.997169  	97.622925 
2734.434076  	97.606576 
2735.870983  	97.628200 
2737.307890  	97.650281 
2738.744797  	97.650316 
2740.181704  	97.637465 
2741.618611  	97.610225 
2743.055518  	97.601506 
2744.492425  	97.617862 
2745.929332  	97.620475 
2747.366239  	97.612236 
2748.803146  	97.602460 
2750.240053  	97.591687 
2751.676960  	97.600480 
2753.113867  	97.613580 
2754.550774  	97.607608 
2755.987681  	97.597070 
2757.424588  	97.587593 
2758.861495  	97.587488 
2760.298402  	97.601164 
2761.735310  	97.600130 
2763.172217  	97.590312 
2764.609124  	97.593029 
2766.046031  	97.589774 
2767.482938  	97.583385 
2768.919845  	97.578344 
2770.356752  	97.561567 
2771.793659  	97.561815 
2773.230566  	97.570335 
2774.667473  	97.545910 
2776.104380  	97.533818 
2777.541287  	97.549319 
2778.978194  	97.539031 
2780.415101  	97.527312 
2781.852008  	97.535747 
2783.288915  	97.522112 
2784.725822  	97.490642 
2786.162729  	97.465963 
2787.599636  	97.461217 
2789.036543  	97.484112 
2790.473450  	97.493444 
2791.910357  	97.480362 
2793.347264  	97.490003 
2794.784171  	97.501622 
2796.221078  	97.486057 
2797.657985  	97.480959 
2799.094892  	97.495646 
2800.531799  	97.492928 
2801.968706  	97.466611 
2803.405613  	97.450870 
2804.842520  	97.462937 
2806.279427  	97.472875 
2807.716334  	97.458107 
2809.153241  	97.437852 
2810.590148  	97.423891 
2812.027056  	97.403899 
2813.463963  	97.380341 
2814.900870  	97.372408 
2816.337777  	97.378684 
2817.774684  	97.381195 
2819.211591  	97.386566 
2820.648498  	97.402446 
2822.085405  	97.402018 
2823.522312  	97.380681 
2824.959219  	97.376379 
2826.396126  	97.389377 
2827.833033  	97.382953 
2829.269940  	97.364033 
2830.706847  	97.357990 
2832.143754  	97.354388 
2833.580661  	97.344818 
2835.017568  	97.336530 
2836.454475  	97.335476 
2837.891382  	97.346134 
2839.328289  	97.344057 
2840.765196  	97.310883 
2842.202103  	97.280427 
2843.639010  	97.269275 
2845.075917  	97.263301 
2846.512824  	97.261022 
2847.949731  	97.256112 
2849.386638  	97.249173 
2850.823545  	97.237158 
2852.260452  	97.209046 
2853.697359  	97.205658 
2855.134266  	97.239049 
2856.571173  	97.239438 
2858.008080  	97.196772 
2859.444987  	97.166857 
2860.881895  	97.167613 
2862.318802  	97.178470 
2863.755709  	97.178636 
2865.192616  	97.177240 
2866.629523  	97.176696 
2868.066430  	97.162645 
2869.503337  	97.156451 
2870.940244  	97.149983 
2872.377151  	97.113824 
2873.814058  	97.087866 
2875.250965  	97.084175 
2876.687872  	97.075855 
2878.124779  	97.081513 
2879.561686  	97.086751 
2880.998593  	97.067334 
2882.435500  	97.050459 
2883.872407  	97.039461 
2885.309314  	97.030840 
2886.746221  	97.025267 
2888.183128  	96.999064 
2889.620035  	96.972284 
2891.056942  	96.974484 
2892.493849  	96.978110 
2893.930756  	96.965617 
2895.367663  	96.951264 
2896.804570  	96.937769 
2898.241477  	96.911672 
2899.678384  	96.885831 
2901.115291  	96.897077 
2902.552198  	96.922414 
2903.989105  	96.913227 
2905.426012  	96.874204 
2906.862919  	96.821717 
2908.299826  	96.781025 
2909.736733  	96.771469 
2911.173641  	96.772256 
2912.610548  	96.782704 
2914.047455  	96.787525 
2915.484362  	96.757571 
2916.921269  	96.735005 
2918.358176  	96.725863 
2919.795083  	96.699543 
2921.231990  	96.692640 
2922.668897  	96.690142 
2924.105804  	96.663999 
2925.542711  	96.663007 
2926.979618  	96.663445 
2928.416525  	96.633113 
2929.853432  	96.623150 
2931.290339  	96.623258 
2932.727246  	96.607714 
2934.164153  	96.606605 
2935.601060  	96.606664 
2937.037967  	96.571855 
2938.474874  	96.508631 
2939.911781  	96.463403 
2941.348688  	96.462397 
2942.785595  	96.454585 
2944.222502  	96.423070 
2945.659409  	96.410402 
2947.096316  	96.401157 
2948.533223  	96.385255 
2949.970130  	96.380132 
2951.407037  	96.360491 
2952.843944  	96.334745 
2954.280851  	96.319240 
2955.717758  	96.287937 
2957.154665  	96.254792 
2958.591572  	96.215053 
2960.028479  	96.156039 
2961.465387  	96.139603 
2962.902294  	96.148580 
2964.339201  	96.119167 
2965.776108  	96.100842 
2967.213015  	96.108124 
2968.649922  	96.092518 
2970.086829  	96.055186 
2971.523736  	96.001576 
2972.960643  	95.966655 
2974.397550  	95.976858 
2975.834457  	95.974915 
2977.271364  	95.955051 
2978.708271  	95.939842 
2980.145178  	95.895515 
2981.582085  	95.845705 
2983.018992  	95.824485 
2984.455899  	95.810785 
2985.892806  	95.806824 
2987.329713  	95.803103 
2988.766620  	95.783825 
2990.203527  	95.756998 
2991.640434  	95.712298 
2993.077341  	95.674710 
2994.514248  	95.676825 
2995.951155  	95.681019 
2997.388062  	95.656809 
2998.824969  	95.608527 
3000.261876  	95.566029 
3001.698783  	95.561934 
3003.135690  	95.553967 
3004.572597  	95.508781 
3006.009504  	95.465922 
3007.446411  	95.444073 
3008.883318  	95.439456 
3010.320226  	95.434722 
3011.757133  	95.398113 
3013.194040  	95.350785 
3014.630947  	95.325686 
3016.067854  	95.307953 
3017.504761  	95.284025 
3018.941668  	95.263863 
3020.378575  	95.238336 
3021.815482  	95.179538 
3023.252389  	95.129255 
3024.689296  	95.135180 
3026.126203  	95.122772 
3027.563110  	95.061399 
3029.000017  	95.015023 
3030.436924  	94.962431 
3031.873831  	94.900312 
3033.310738  	94.882517 
3034.747645  	94.853655 
3036.184552  	94.790445 
3037.621459  	94.774953 
3039.058366  	94.787286 
3040.495273  	94.749765 
3041.932180  	94.696168 
3043.369087  	94.677533 
3044.805994  	94.651283 
3046.242901  	94.584500 
3047.679808  	94.514330 
3049.116715  	94.478750 
3050.553622  	94.474672 
3051.990529  	94.442896 
3053.427436  	94.369758 
3054.864343  	94.340881 
3056.301250  	94.339122 
3057.738157  	94.273784 
3059.175064  	94.194569 
3060.611972  	94.151550 
3062.048879  	94.115678 
3063.485786  	94.091205 
3064.922693  	94.074423 
3066.359600  	94.036600 
3067.796507  	93.968079 
3069.233414  	93.907788 
3070.670321  	93.893152 
3072.107228  	93.862740 
3073.544135  	93.801892 
3074.981042  	93.765509 
3076.417949  	93.708729 
3077.854856  	93.640926 
3079.291763  	93.612000 
3080.728670  	93.556199 
3082.165577  	93.493772 
3083.602484  	93.466494 
3085.039391  	93.410117 
3086.476298  	93.346860 
3087.913205  	93.307015 
3089.350112  	93.270133 
3090.787019  	93.251856 
3092.223926  	93.205930 
3093.660833  	93.112091 
3095.097740  	93.047180 
3096.534647  	93.013099 
3097.971554  	92.952240 
3099.408461  	92.873365 
3100.845368  	92.835807 
3102.282275  	92.815798 
3103.719182  	92.739865 
3105.156089  	92.663416 
3106.592996  	92.613276 
3108.029903  	92.544452 
3109.466811  	92.507721 
3110.903718  	92.483632 
3112.340625  	92.419916 
3113.777532  	92.366001 
3115.214439  	92.298745 
3116.651346  	92.225075 
3118.088253  	92.191369 
3119.525160  	92.128169 
3120.962067  	92.047495 
3122.398974  	91.988246 
3123.835881  	91.923499 
3125.272788  	91.895124 
3126.709695  	91.867574 
3128.146602  	91.783275 
3129.583509  	91.702651 
3131.020416  	91.649141 
3132.457323  	91.628211 
3133.894230  	91.601966 
3135.331137  	91.505100 
3136.768044  	91.414216 
3138.204951  	91.363203 
3139.641858  	91.307517 
3141.078765  	91.266787 
3142.515672  	91.224690 
3143.952579  	91.170051 
3145.389486  	91.114358 
3146.826393  	91.048025 
3148.263300  	90.997793 
3149.700207  	90.944445 
3151.137114  	90.884591 
3152.574021  	90.842638 
3154.010928  	90.768998 
3155.447835  	90.703971 
3156.884742  	90.644750 
3158.321649  	90.511629 
3159.758557  	90.440225 
3161.195464  	90.454900 
3162.632371  	90.408817 
3164.069278  	90.359422 
3165.506185  	90.327181 
3166.943092  	90.259136 
3168.379999  	90.203952 
3169.816906  	90.145055 
3171.253813  	90.070200 
3172.690720  	89.998104 
3174.127627  	89.924470 
3175.564534  	89.889744 
3177.001441  	89.862376 
3178.438348  	89.814337 
3179.875255  	89.768897 
3181.312162  	89.698078 
3182.749069  	89.653588 
3184.185976  	89.634125 
3185.622883  	89.566454 
3187.059790  	89.529423 
3188.496697  	89.501310 
3189.933604  	89.404567 
3191.370511  	89.334638 
3192.807418  	89.307397 
3194.244325  	89.283285 
3195.681232  	89.255681 
3197.118139  	89.196644 
3198.555046  	89.155307 
3199.991953  	89.116234 
3201.428860  	89.044776 
3202.865767  	89.014945 
3204.302674  	88.969697 
3205.739581  	88.863247 
3207.176488  	88.796751 
3208.613395  	88.780448 
3210.050303  	88.788901 
3211.487210  	88.789048 
3212.924117  	88.732140 
3214.361024  	88.668364 
3215.797931  	88.629500 
3217.234838  	88.594360 
3218.671745  	88.562473 
3220.108652  	88.532139 
3221.545559  	88.503677 
3222.982466  	88.455629 
3224.419373  	88.413873 
3225.856280  	88.417570 
3227.293187  	88.401544 
3228.730094  	88.356593 
3230.167001  	88.329615 
3231.603908  	88.320371 
3233.040815  	88.315261 
3234.477722  	88.245983 
3235.914629  	88.167772 
3237.351536  	88.192694 
3238.788443  	88.208283 
3240.225350  	88.169779 
3241.662257  	88.132477 
3243.099164  	88.068895 
3244.536071  	88.049701 
3245.972978  	88.064083 
3247.409885  	88.025464 
3248.846792  	88.017705 
3250.283699  	88.035810 
3251.720606  	88.035597 
3253.157513  	88.024195 
3254.594420  	87.951059 
3256.031327  	87.925879 
3257.468234  	87.978378 
3258.905142  	87.938342 
3260.342049  	87.889073 
3261.778956  	87.928589 
3263.215863  	87.950999 
3264.652770  	87.939285 
3266.089677  	87.908467 
3267.526584  	87.864462 
3268.963491  	87.841116 
3270.400398  	87.836768 
3271.837305  	87.849797 
3273.274212  	87.846518 
3274.711119  	87.823637 
3276.148026  	87.805949 
3277.584933  	87.763905 
3279.021840  	87.753810 
3280.458747  	87.785581 
3281.895654  	87.761967 
3283.332561  	87.726123 
3284.769468  	87.723224 
3286.206375  	87.727103 
3287.643282  	87.728715 
3289.080189  	87.698268 
3290.517096  	87.703943 
3291.954003  	87.741003 
3293.390910  	87.689275 
3294.827817  	87.661953 
3296.264724  	87.710429 
3297.701631  	87.694024 
3299.138538  	87.659476 
3300.575445  	87.653466 
3302.012352  	87.625048 
3303.449259  	87.618128 
3304.886166  	87.633234 
3306.323073  	87.629175 
3307.759980  	87.612951 
3309.196888  	87.588818 
3310.633795  	87.575892 
3312.070702  	87.587427 
3313.507609  	87.602639 
3314.944516  	87.591482 
3316.381423  	87.570179 
3317.818330  	87.571422 
3319.255237  	87.562878 
3320.692144  	87.562398 
3322.129051  	87.588420 
3323.565958  	87.561247 
3325.002865  	87.511701 
3326.439772  	87.488043 
3327.876679  	87.451954 
3329.313586  	87.450562 
3330.750493  	87.472345 
3332.187400  	87.467703 
3333.624307  	87.477748 
3335.061214  	87.472329 
3336.498121  	87.451505 
3337.935028  	87.465618 
3339.371935  	87.482343 
3340.808842  	87.501242 
3342.245749  	87.504821 
3343.682656  	87.487807 
3345.119563  	87.496896 
3346.556470  	87.477121 
3347.993377  	87.443446 
3349.430284  	87.458178 
3350.867191  	87.451253 
3352.304098  	87.419947 
3353.741005  	87.398051 
3355.177912  	87.388203 
3356.614819  	87.396816 
3358.051726  	87.368744 
3359.488634  	87.375112 
3360.925541  	87.455220 
3362.362448  	87.472927 
3363.799355  	87.487343 
3365.236262  	87.535494 
3366.673169  	87.509543 
3368.110076  	87.494448 
3369.546983  	87.514177 
3370.983890  	87.507961 
3372.420797  	87.525683 
3373.857704  	87.551135 
3375.294611  	87.572513 
3376.731518  	87.566166 
3378.168425  	87.525465 
3379.605332  	87.584412 
3381.042239  	87.672627 
3382.479146  	87.656537 
3383.916053  	87.633040 
3385.352960  	87.607601 
3386.789867  	87.581385 
3388.226774  	87.637060 
3389.663681  	87.701520 
3391.100588  	87.715445 
3392.537495  	87.708213 
3393.974402  	87.712997 
3395.411309  	87.745182 
3396.848216  	87.777642 
3398.285123  	87.824333 
3399.722030  	87.847542 
3401.158937  	87.833559 
3402.595844  	87.887736 
3404.032751  	87.946187 
3405.469658  	87.942607 
3406.906565  	87.955481 
3408.343473  	87.955156 
3409.780380  	87.979728 
3411.217287  	88.057105 
3412.654194  	88.079431 
3414.091101  	88.098390 
3415.528008  	88.133466 
3416.964915  	88.141354 
3418.401822  	88.188784 
3419.838729  	88.245755 
3421.275636  	88.319184 
3422.712543  	88.401809 
3424.149450  	88.379835 
3425.586357  	88.373839 
3427.023264  	88.448244 
3428.460171  	88.510430 
3429.897078  	88.591368 
3431.333985  	88.605509 
3432.770892  	88.547013 
3434.207799  	88.601267 
3435.644706  	88.695170 
3437.081613  	88.721708 
3438.518520  	88.728689 
3439.955427  	88.758307 
3441.392334  	88.840296 
3442.829241  	88.897983 
3444.266148  	88.928201 
3445.703055  	88.998347 
3447.139962  	89.016897 
3448.576869  	89.024340 
3450.013776  	89.110382 
3451.450683  	89.197324 
3452.887590  	89.264300 
3454.324497  	89.247566 
3455.761404  	89.208908 
3457.198311  	89.319944 
3458.635219  	89.422900 
3460.072126  	89.409414 
3461.509033  	89.422824 
3462.945940  	89.473944 
3464.382847  	89.537986 
3465.819754  	89.594457 
3467.256661  	89.611558 
3468.693568  	89.622445 
3470.130475  	89.626912 
3471.567382  	89.683073 
3473.004289  	89.792570 
3474.441196  	89.832912 
3475.878103  	89.860397 
3477.315010  	89.907902 
3478.751917  	89.908054 
3480.188824  	89.929577 
3481.625731  	89.992754 
3483.062638  	90.076657 
3484.499545  	90.158620 
3485.936452  	90.189164 
3487.373359  	90.255819 
3488.810266  	90.338309 
3490.247173  	90.345358 
3491.684080  	90.403993 
3493.120987  	90.487711 
3494.557894  	90.479548 
3495.994801  	90.473012 
3497.431708  	90.515769 
3498.868615  	90.582369 
3500.305522  	90.648894 
3501.742429  	90.667978 
3503.179336  	90.681846 
3504.616243  	90.741802 
3506.053150  	90.849901 
3507.490058  	90.962553 
3508.926965  	90.986626 
3510.363872  	90.984230 
3511.800779  	91.082757 
3513.237686  	91.194012 
3514.674593  	91.246800 
3516.111500  	91.281327 
3517.548407  	91.343266 
3518.985314  	91.408061 
3520.422221  	91.422886 
3521.859128  	91.423291 
3523.296035  	91.433186 
3524.732942  	91.461933 
3526.169849  	91.530081 
3527.606756  	91.577008 
3529.043663  	91.616249 
3530.480570  	91.664797 
3531.917477  	91.688563 
3533.354384  	91.792821 
3534.791291  	91.933092 
3536.228198  	91.951616 
3537.665105  	91.937525 
3539.102012  	91.969045 
3540.538919  	92.001408 
3541.975826  	92.074714 
3543.412733  	92.162327 
3544.849640  	92.242761 
3546.286547  	92.278273 
3547.723454  	92.290768 
3549.160361  	92.347147 
3550.597268  	92.399444 
3552.034175  	92.434582 
3553.471082  	92.496698 
3554.907989  	92.563912 
3556.344896  	92.627221 
3557.781804  	92.699933 
3559.218711  	92.735670 
3560.655618  	92.743705 
3562.092525  	92.774413 
3563.529432  	92.833822 
3564.966339  	92.891588 
3566.403246  	92.950874 
3567.840153  	93.025613 
3569.277060  	93.120604 
3570.713967  	93.148542 
3572.150874  	93.190717 
3573.587781  	93.252220 
3575.024688  	93.274225 
3576.461595  	93.304574 
3577.898502  	93.366160 
3579.335409  	93.378595 
3580.772316  	93.394634 
3582.209223  	93.466526 
3583.646130  	93.523751 
3585.083037  	93.561858 
3586.519944  	93.634247 
3587.956851  	93.678719 
3589.393758  	93.694762 
3590.830665  	93.777124 
3592.267572  	93.873422 
3593.704479  	93.918273 
3595.141386  	93.965534 
3596.578293  	94.025881 
3598.015200  	94.032217 
3599.452107  	94.060216 
3600.889014  	94.116048 
3602.325921  	94.128917 
3603.762828  	94.126346 
3605.199735  	94.162278 
3606.636642  	94.258840 
3608.073550  	94.343293 
3609.510457  	94.369586 
3610.947364  	94.476634 
3612.384271  	94.588123 
3613.821178  	94.543500 
3615.258085  	94.494655 
3616.694992  	94.626139 
3618.131899  	94.817208 
3619.568806  	94.830738 
3621.005713  	94.679806 
3622.442620  	94.683709 
3623.879527  	94.800345 
3625.316434  	94.880880 
3626.753341  	94.954287 
3628.190248  	95.060974 
3629.627155  	94.921432 
3631.064062  	94.879714 
3632.500969  	95.008606 
3633.937876  	95.084744 
3635.374783  	95.054040 
3636.811690  	95.124193 
3638.248597  	95.253273 
3639.685504  	95.307329 
3641.122411  	95.390582 
3642.559318  	95.476763 
3643.996225  	95.482535 
3645.433132  	95.557099 
3646.870039  	95.607881 
3648.306946  	95.445916 
3649.743853  	95.541825 
3651.180760  	95.765825 
3652.617667  	95.770679 
3654.054574  	95.843176 
3655.491481  	96.038249 
3656.928389  	96.075366 
3658.365296  	95.983457 
3659.802203  	96.013946 
3661.239110  	96.055935 
3662.676017  	96.056011 
3664.112924  	96.149894 
3665.549831  	96.249249 
3666.986738  	96.298686 
3668.423645  	96.358522 
3669.860552  	96.414490 
3671.297459  	96.359445 
3672.734366  	96.417650 
3674.171273  	96.596522 
3675.608180  	96.661319 
3677.045087  	96.517071 
3678.481994  	96.608687 
3679.918901  	96.664683 
3681.355808  	96.634056 
3682.792715  	96.700579 
3684.229622  	96.777716 
3685.666529  	96.825676 
3687.103436  	96.910557 
3688.540343  	96.938970 
3689.977250  	96.870496 
3691.414157  	96.933428 
3692.851064  	96.943124 
3694.287971  	96.932076 
3695.724878  	96.997543 
3697.161785  	97.033418 
3698.598692  	97.044846 
3700.035599  	97.109565 
3701.472506  	97.146733 
3702.909413  	97.103728 
3704.346320  	97.031970 
3705.783227  	97.006927 
3707.220135  	97.093419 
3708.657042  	97.177652 
3710.093949  	97.233486 
3711.530856  	97.304891 
3712.967763  	97.244438 
3714.404670  	97.195920 
3715.841577  	97.275490 
3717.278484  	97.343243 
3718.715391  	97.327288 
3720.152298  	97.304816 
3721.589205  	97.317163 
3723.026112  	97.284594 
3724.463019  	97.250390 
3725.899926  	97.308354 
3727.336833  	97.296022 
3728.773740  	97.187068 
3730.210647  	97.242841 
3731.647554  	97.341540 
3733.084461  	97.335379 
3734.521368  	97.366573 
3735.958275  	97.330426 
3737.395182  	97.140921 
3738.832089  	97.236373 
3740.268996  	97.338511 
3741.705903  	97.347447 
3743.142810  	97.449786 
3744.579717  	97.462201 
3746.016624  	97.186956 
3747.453531  	97.322013 
3748.890438  	97.468867 
3750.327345  	97.409122 
3751.764252  	97.404610 
3753.201159  	97.327753 
3754.638066  	97.227996 
3756.074973  	97.297542 
3757.511881  	97.374209 
3758.948788  	97.345301 
3760.385695  	97.324767 
3761.822602  	97.252430 
3763.259509  	97.252816 
3764.696416  	97.345908 
3766.133323  	97.323473 
3767.570230  	97.307976 
3769.007137  	97.382070 
3770.444044  	97.321327 
3771.880951  	97.260723 
3773.317858  	97.315426 
3774.754765  	97.334473 
3776.191672  	97.319510 
3777.628579  	97.393062 
3779.065486  	97.393525 
3780.502393  	97.206898 
3781.939300  	97.181526 
3783.376207  	97.343248 
3784.813114  	97.415368 
3786.250021  	97.348541 
3787.686928  	97.333489 
3789.123835  	97.356551 
3790.560742  	97.404224 
3791.997649  	97.390817 
3793.434556  	97.398376 
3794.871463  	97.419723 
3796.308370  	97.446592 
3797.745277  	97.372307 
3799.182184  	97.378669 
3800.619091  	97.492090 
3802.055998  	97.444418 
3803.492905  	97.297310 
3804.929812  	97.404498 
3806.366720  	97.555471 
3807.803627  	97.471895 
3809.240534  	97.367369 
3810.677441  	97.424535 
3812.114348  	97.433899 
3813.551255  	97.420263 
3814.988162  	97.525041 
3816.425069  	97.516386 
3817.861976  	97.363912 
3819.298883  	97.452089 
3820.735790  	97.573949 
3822.172697  	97.426950 
3823.609604  	97.382022 
3825.046511  	97.455719 
3826.483418  	97.484444 
3827.920325  	97.437215 
3829.357232  	97.457130 
3830.794139  	97.499442 
3832.231046  	97.475681 
3833.667953  	97.456956 
3835.104860  	97.490664 
3836.541767  	97.558351 
3837.978674  	97.583131 
3839.415581  	97.481858 
3840.852488  	97.411238 
3842.289395  	97.473650 
3843.726302  	97.481338 
3845.163209  	97.423952 
3846.600116  	97.449758 
3848.037023  	97.506889 
3849.473930  	97.484694 
3850.910837  	97.503543 
3852.347744  	97.666325 
3853.784651  	97.564744 
3855.221558  	97.293046 
3856.658466  	97.363731 
3858.095373  	97.384902 
3859.532280  	97.424947 
3860.969187  	97.511111 
3862.406094  	97.491055 
3863.843001  	97.466564 
3865.279908  	97.465018 
3866.716815  	97.373797 
3868.153722  	97.459508 
3869.590629  	97.589019 
3871.027536  	97.373293 
3872.464443  	97.371055 
3873.901350  	97.490559 
3875.338257  	97.400129 
3876.775164  	97.361804 
3878.212071  	97.457603 
3879.648978  	97.572426 
3881.085885  	97.485433 
3882.522792  	97.334829 
3883.959699  	97.402996 
3885.396606  	97.498637 
3886.833513  	97.254407 
3888.270420  	97.224073 
3889.707327  	97.412287 
3891.144234  	97.460844 
3892.581141  	97.341926 
3894.018048  	97.340803 
3895.454955  	97.368405 
3896.891862  	97.427184 
3898.328769  	97.492044 
3899.765676  	97.436181 
3901.202583  	97.345026 
3902.639490  	97.357834 
3904.076397  	97.323634 
3905.513305  	97.252430 
3906.950212  	97.298047 
3908.387119  	97.339699 
3909.824026  	97.342110 
3911.260933  	97.365054 
3912.697840  	97.373882 
3914.134747  	97.383781 
3915.571654  	97.407832 
3917.008561  	97.378090 
3918.445468  	97.319267 
3919.882375  	97.322876 
3921.319282  	97.343372 
3922.756189  	97.394225 
3924.193096  	97.403531 
3925.630003  	97.319794 
3927.066910  	97.301837 
3928.503817  	97.339751 
3929.940724  	97.318024 
3931.377631  	97.313200 
3932.814538  	97.310200 
3934.251445  	97.257950 
3935.688352  	97.261755 
3937.125259  	97.320724 
3938.562166  	97.322849 
3939.999073  	97.316167 
3941.435980  	97.385305 
3942.872887  	97.363944 
3944.309794  	97.251306 
3945.746701  	97.286437 
3947.183608  	97.373209 
3948.620515  	97.348767 
3950.057422  	97.297737 
3951.494329  	97.296176 
3952.931236  	97.288263 
3954.368143  	97.298212 
3955.805051  	97.326811 
3957.241958  	97.321857 
3958.678865  	97.307806 
3960.115772  	97.308021 
3961.552679  	97.268231 
3962.989586  	97.224797 
3964.426493  	97.255130 
3965.863400  	97.302592 
3967.300307  	97.295209 
3968.737214  	97.256875 
3970.174121  	97.245173 
3971.611028  	97.287001 
3973.047935  	97.310604 
3974.484842  	97.264741 
3975.921749  	97.243829 
3977.358656  	97.268250 
3978.795563  	97.277951 
3980.232470  	97.289274 
3981.669377  	97.280848 
3983.106284  	97.263888 
3984.543191  	97.302232 
3985.980098  	97.335928 
3987.417005  	97.327125 
3988.853912  	97.302393 
3990.290819  	97.258186 
3991.727726  	97.257483 
3993.164633  	97.296487 
3994.601540  	97.270852 
3996.038447  	97.228529 
3997.475354  	97.249900 
3998.912261  	97.273730 
4000.349168  	97.268382 