##TITLE=No Description
##DATA TYPE=INFRARED SPECTRUM
##XUNITS=1/CM
##YUNITS=%T
399.460154  	44.673601 
400.897061  	43.940517 
402.333968  	44.290177 
403.770875  	44.034821 
405.207782  	44.014684 
406.644689  	45.039084 
408.081596  	45.362565 
409.518503  	44.466714 
410.955410  	44.156651 
412.392317  	44.657637 
413.829224  	44.375855 
415.266131  	44.130328 
416.703038  	44.985103 
418.139945  	46.265210 
419.576852  	45.758498 
421.013759  	44.442253 
422.450666  	44.403851 
423.887574  	44.843892 
425.324481  	44.285741 
426.761388  	43.742751 
428.198295  	44.000906 
429.635202  	44.279420 
431.072109  	44.619412 
432.509016  	44.615265 
433.945923  	44.337502 
435.382830  	44.856863 
436.819737  	45.001625 
438.256644  	44.450694 
439.693551  	44.482593 
441.130458  	44.523710 
442.567365  	44.761543 
444.004272  	45.392373 
445.441179  	44.992365 
446.878086  	44.506283 
448.314993  	44.697935 
449.751900  	44.720330 
451.188807  	44.906394 
452.625714  	44.952188 
454.062621  	44.441852 
455.499528  	44.590990 
456.936435  	45.566250 
458.373342  	46.116108 
459.810249  	45.315247 
461.247156  	44.400512 
462.684063  	44.394014 
464.120970  	44.787195 
465.557877  	44.957246 
466.994784  	45.020755 
468.431691  	44.810220 
469.868598  	44.822511 
471.305505  	45.026820 
472.742413  	44.604014 
474.179320  	44.423704 
475.616227  	44.806282 
477.053134  	45.221801 
478.490041  	45.521491 
479.926948  	45.422516 
481.363855  	45.054642 
482.800762  	44.922298 
484.237669  	45.324842 
485.674576  	45.764825 
487.111483  	45.349334 
488.548390  	44.979990 
489.985297  	45.223564 
491.422204  	44.989889 
492.859111  	44.744562 
494.296018  	45.091667 
495.732925  	45.035148 
497.169832  	45.002849 
498.606739  	45.437017 
500.043646  	45.597957 
501.480553  	45.530049 
502.917460  	45.449982 
504.354367  	45.439482 
505.791274  	45.523630 
507.228181  	45.442640 
508.665088  	45.441896 
510.101995  	45.652002 
511.538902  	45.874235 
512.975809  	46.078717 
514.412716  	46.068670 
515.849623  	46.088871 
517.286530  	46.223184 
518.723437  	45.922643 
520.160344  	45.738999 
521.597251  	45.981196 
523.034159  	46.109873 
524.471066  	46.260328 
525.907973  	46.460988 
527.344880  	46.487979 
528.781787  	46.543284 
530.218694  	46.527129 
531.655601  	46.461875 
533.092508  	46.451577 
534.529415  	46.435038 
535.966322  	46.597764 
537.403229  	46.767220 
538.840136  	46.759479 
540.277043  	46.835373 
541.713950  	46.823931 
543.150857  	46.709179 
544.587764  	46.821724 
546.024671  	47.087172 
547.461578  	47.322979 
548.898485  	47.336073 
550.335392  	47.155561 
551.772299  	47.182571 
553.209206  	47.413634 
554.646113  	47.557338 
556.083020  	47.540687 
557.519927  	47.507766 
558.956834  	47.630396 
560.393741  	47.716103 
561.830648  	47.699472 
563.267555  	47.803848 
564.704462  	47.874103 
566.141369  	47.870573 
567.578276  	48.029750 
569.015183  	48.233239 
570.452090  	48.314510 
571.888997  	48.330237 
573.325905  	48.428148 
574.762812  	48.638667 
576.199719  	48.700135 
577.636626  	48.643181 
579.073533  	48.746541 
580.510440  	48.892410 
581.947347  	48.955929 
583.384254  	49.007821 
584.821161  	49.074087 
586.258068  	49.136802 
587.694975  	49.176488 
589.131882  	49.275131 
590.568789  	49.435736 
592.005696  	49.545638 
593.442603  	49.645132 
594.879510  	49.737702 
596.316417  	49.830976 
597.753324  	50.000784 
599.190231  	50.077657 
600.627138  	50.052082 
602.064045  	50.161993 
603.500952  	50.317696 
604.937859  	50.415784 
606.374766  	50.509346 
607.811673  	50.600436 
609.248580  	50.679444 
610.685487  	50.765411 
612.122394  	50.869950 
613.559301  	50.992036 
614.996208  	51.122512 
616.433115  	51.242949 
617.870022  	51.363973 
619.306929  	51.465127 
620.743836  	51.576000 
622.180744  	51.723833 
623.617651  	51.849357 
625.054558  	51.915564 
626.491465  	51.979900 
627.928372  	52.099746 
629.365279  	52.226094 
630.802186  	52.323390 
632.239093  	52.419401 
633.676000  	52.547237 
635.112907  	52.710647 
636.549814  	52.834537 
637.986721  	52.904592 
639.423628  	53.009499 
640.860535  	53.128809 
642.297442  	53.257010 
643.734349  	53.416709 
645.171256  	53.559366 
646.608163  	53.685159 
648.045070  	53.815747 
649.481977  	53.922702 
650.918884  	54.048649 
652.355791  	54.185650 
653.792698  	54.267843 
655.229605  	54.371072 
656.666512  	54.535262 
658.103419  	54.718073 
659.540326  	54.857353 
660.977233  	54.959005 
662.414140  	55.093834 
663.851047  	55.233213 
665.287954  	55.343141 
666.724861  	55.489284 
668.161768  	55.635075 
669.598675  	55.779345 
671.035582  	55.924184 
672.472490  	56.075300 
673.909397  	56.190167 
675.346304  	56.329865 
676.783211  	56.504006 
678.220118  	56.654015 
679.657025  	56.782040 
681.093932  	56.919871 
682.530839  	57.064853 
683.967746  	57.193934 
685.404653  	57.316444 
686.841560  	57.445686 
688.278467  	57.625851 
689.715374  	57.816992 
691.152281  	57.992161 
692.589188  	58.144930 
694.026095  	58.280658 
695.463002  	58.427776 
696.899909  	58.606214 
698.336816  	58.753484 
699.773723  	58.903840 
701.210630  	59.100566 
702.647537  	59.265614 
704.084444  	59.425859 
705.521351  	59.624126 
706.958258  	59.771598 
708.395165  	59.910021 
709.832072  	60.103513 
711.268979  	60.294602 
712.705886  	60.457634 
714.142793  	60.593979 
715.579700  	60.761447 
717.016607  	60.947135 
718.453514  	61.091902 
719.890421  	61.259687 
721.327328  	61.446168 
722.764236  	61.576647 
724.201143  	61.710053 
725.638050  	61.947810 
727.074957  	62.160037 
728.511864  	62.309062 
729.948771  	62.478963 
731.385678  	62.641003 
732.822585  	62.749450 
734.259492  	62.890071 
735.696399  	63.092114 
737.133306  	63.249733 
738.570213  	63.387396 
740.007120  	63.596394 
741.444027  	63.827000 
742.880934  	64.046484 
744.317841  	64.222974 
745.754748  	64.371022 
747.191655  	64.584532 
748.628562  	64.794143 
750.065469  	64.952966 
751.502376  	65.155280 
752.939283  	65.359300 
754.376190  	65.524964 
755.813097  	65.724138 
757.250004  	65.965364 
758.686911  	66.181770 
760.123818  	66.294815 
761.560725  	66.378940 
762.997632  	66.562003 
764.434539  	66.763731 
765.871446  	66.931071 
767.308353  	67.114091 
768.745260  	67.290093 
770.182167  	67.486731 
771.619075  	67.707080 
773.055982  	67.879964 
774.492889  	68.050218 
775.929796  	68.258953 
777.366703  	68.480984 
778.803610  	68.712171 
780.240517  	68.916781 
781.677424  	69.096856 
783.114331  	69.296524 
784.551238  	69.488218 
785.988145  	69.661313 
787.425052  	69.851362 
788.861959  	70.037536 
790.298866  	70.204603 
791.735773  	70.403396 
793.172680  	70.622214 
794.609587  	70.796833 
796.046494  	70.974878 
797.483401  	71.187795 
798.920308  	71.364368 
800.357215  	71.534724 
801.794122  	71.746369 
803.231029  	71.950176 
804.667936  	72.172230 
806.104843  	72.429120 
807.541750  	72.628882 
808.978657  	72.756008 
810.415564  	72.887809 
811.852471  	73.069381 
813.289378  	73.291073 
814.726285  	73.506589 
816.163192  	73.701822 
817.600099  	73.916845 
819.037006  	74.141605 
820.473913  	74.327681 
821.910821  	74.512242 
823.347728  	74.724868 
824.784635  	74.923857 
826.221542  	75.125202 
827.658449  	75.317217 
829.095356  	75.466695 
830.532263  	75.656596 
831.969170  	75.876329 
833.406077  	76.052096 
834.842984  	76.255501 
836.279891  	76.485949 
837.716798  	76.676567 
839.153705  	76.858207 
840.590612  	77.039756 
842.027519  	77.240107 
843.464426  	77.473102 
844.901333  	77.660658 
846.338240  	77.803132 
847.775147  	77.987576 
849.212054  	78.221229 
850.648961  	78.453111 
852.085868  	78.673948 
853.522775  	78.889395 
854.959682  	79.064785 
856.396589  	79.230385 
857.833496  	79.434593 
859.270403  	79.639156 
860.707310  	79.842676 
862.144217  	80.019985 
863.581124  	80.156990 
865.018031  	80.356162 
866.454938  	80.557479 
867.891845  	80.697055 
869.328752  	80.895760 
870.765660  	81.106744 
872.202567  	81.282664 
873.639474  	81.488725 
875.076381  	81.668008 
876.513288  	81.843312 
877.950195  	82.024107 
879.387102  	82.148367 
880.824009  	82.319063 
882.260916  	82.524807 
883.697823  	82.688235 
885.134730  	82.864254 
886.571637  	83.013631 
888.008544  	83.155696 
889.445451  	83.332679 
890.882358  	83.470662 
892.319265  	83.621083 
893.756172  	83.786054 
895.193079  	83.916327 
896.629986  	84.068128 
898.066893  	84.193880 
899.503800  	84.327255 
900.940707  	84.530075 
902.377614  	84.679096 
903.814521  	84.816299 
905.251428  	84.987352 
906.688335  	85.101218 
908.125242  	85.228082 
909.562149  	85.377745 
910.999056  	85.505072 
912.435963  	85.648508 
913.872870  	85.759268 
915.309777  	85.875021 
916.746684  	86.045231 
918.183591  	86.189442 
919.620498  	86.323137 
921.057406  	86.439580 
922.494313  	86.518080 
923.931220  	86.628463 
925.368127  	86.759200 
926.805034  	86.903402 
928.241941  	87.026816 
929.678848  	87.077905 
931.115755  	87.171237 
932.552662  	87.302148 
933.989569  	87.388772 
935.426476  	87.507614 
936.863383  	87.624124 
938.300290  	87.686732 
939.737197  	87.769540 
941.174104  	87.874449 
942.611011  	87.972790 
944.047918  	88.040744 
945.484825  	88.103495 
946.921732  	88.213856 
948.358639  	88.306117 
949.795546  	88.381263 
951.232453  	88.487255 
952.669360  	88.570064 
954.106267  	88.648946 
955.543174  	88.729416 
956.980081  	88.786894 
958.416988  	88.869251 
959.853895  	88.938960 
961.290802  	88.996926 
962.727709  	89.085066 
964.164616  	89.133252 
965.601523  	89.180949 
967.038430  	89.264077 
968.475337  	89.304786 
969.912244  	89.362493 
971.349152  	89.470000 
972.786059  	89.553217 
974.222966  	89.614353 
975.659873  	89.666939 
977.096780  	89.720909 
978.533687  	89.769306 
979.970594  	89.786790 
981.407501  	89.813320 
982.844408  	89.862912 
984.281315  	89.920383 
985.718222  	89.992592 
987.155129  	90.058455 
988.592036  	90.118125 
990.028943  	90.172682 
991.465850  	90.215074 
992.902757  	90.265994 
994.339664  	90.311198 
995.776571  	90.348394 
997.213478  	90.374760 
998.650385  	90.371548 
1000.087292  	90.397626 
1001.524199  	90.463587 
1002.961106  	90.524155 
1004.398013  	90.577258 
1005.834920  	90.591084 
1007.271827  	90.601918 
1008.708734  	90.657786 
1010.145641  	90.696565 
1011.582548  	90.738523 
1013.019455  	90.793214 
1014.456362  	90.785765 
1015.893269  	90.764304 
1017.330176  	90.793552 
1018.767083  	90.858738 
1020.203991  	90.915115 
1021.640898  	90.937245 
1023.077805  	90.987197 
1024.514712  	91.041007 
1025.951619  	91.043196 
1027.388526  	91.066947 
1028.825433  	91.090402 
1030.262340  	91.086523 
1031.699247  	91.110226 
1033.136154  	91.115042 
1034.573061  	91.119879 
1036.009968  	91.154995 
1037.446875  	91.157013 
1038.883782  	91.176800 
1040.320689  	91.215343 
1041.757596  	91.228737 
1043.194503  	91.279570 
1044.631410  	91.314264 
1046.068317  	91.303774 
1047.505224  	91.318864 
1048.942131  	91.318235 
1050.379038  	91.314894 
1051.815945  	91.349492 
1053.252852  	91.375143 
1054.689759  	91.400076 
1056.126666  	91.424511 
1057.563573  	91.442341 
1059.000480  	91.458167 
1060.437387  	91.448082 
1061.874294  	91.467733 
1063.311201  	91.500812 
1064.748108  	91.470989 
1066.185015  	91.461281 
1067.621922  	91.499414 
1069.058829  	91.525480 
1070.495737  	91.550477 
1071.932644  	91.563513 
1073.369551  	91.565324 
1074.806458  	91.571576 
1076.243365  	91.582802 
1077.680272  	91.608271 
1079.117179  	91.610975 
1080.554086  	91.604256 
1081.990993  	91.605107 
1083.427900  	91.572009 
1084.864807  	91.573932 
1086.301714  	91.620541 
1087.738621  	91.631308 
1089.175528  	91.642529 
1090.612435  	91.646712 
1092.049342  	91.635029 
1093.486249  	91.649556 
1094.923156  	91.636388 
1096.360063  	91.614488 
1097.796970  	91.627487 
1099.233877  	91.647308 
1100.670784  	91.694823 
1102.107691  	91.708676 
1103.544598  	91.670076 
1104.981505  	91.671392 
1106.418412  	91.659625 
1107.855319  	91.645684 
1109.292226  	91.700575 
1110.729133  	91.725765 
1112.166040  	91.720218 
1113.602947  	91.743958 
1115.039854  	91.756515 
1116.476761  	91.762939 
1117.913668  	91.760906 
1119.350575  	91.748448 
1120.787483  	91.753231 
1122.224390  	91.763721 
1123.661297  	91.785495 
1125.098204  	91.793136 
1126.535111  	91.781889 
1127.972018  	91.794462 
1129.408925  	91.776754 
1130.845832  	91.751100 
1132.282739  	91.781134 
1133.719646  	91.791852 
1135.156553  	91.798601 
1136.593460  	91.821255 
1138.030367  	91.800290 
1139.467274  	91.802026 
1140.904181  	91.821918 
1142.341088  	91.797530 
1143.777995  	91.793457 
1145.214902  	91.803732 
1146.651809  	91.796939 
1148.088716  	91.800519 
1149.525623  	91.801375 
1150.962530  	91.811529 
1152.399437  	91.823328 
1153.836344  	91.815392 
1155.273251  	91.817233 
1156.710158  	91.802973 
1158.147065  	91.778867 
1159.583972  	91.796037 
1161.020879  	91.809470 
1162.457786  	91.790592 
1163.894693  	91.772763 
1165.331600  	91.781150 
1166.768507  	91.804281 
1168.205414  	91.794151 
1169.642322  	91.782434 
1171.079229  	91.792540 
1172.516136  	91.761408 
1173.953043  	91.728778 
1175.389950  	91.740220 
1176.826857  	91.745202 
1178.263764  	91.748096 
1179.700671  	91.743468 
1181.137578  	91.713671 
1182.574485  	91.704782 
1184.011392  	91.715276 
1185.448299  	91.714599 
1186.885206  	91.706070 
1188.322113  	91.700476 
1189.759020  	91.709713 
1191.195927  	91.713711 
1192.632834  	91.705227 
1194.069741  	91.706088 
1195.506648  	91.705213 
1196.943555  	91.699673 
1198.380462  	91.691960 
1199.817369  	91.679463 
1201.254276  	91.682565 
1202.691183  	91.683624 
1204.128090  	91.668065 
1205.564997  	91.669336 
1207.001904  	91.678413 
1208.438811  	91.667965 
1209.875718  	91.657248 
1211.312625  	91.672296 
1212.749532  	91.683271 
1214.186439  	91.653089 
1215.623346  	91.641277 
1217.060253  	91.669659 
1218.497160  	91.661701 
1219.934068  	91.642977 
1221.370975  	91.662424 
1222.807882  	91.669794 
1224.244789  	91.664824 
1225.681696  	91.677113 
1227.118603  	91.681429 
1228.555510  	91.663858 
1229.992417  	91.645904 
1231.429324  	91.649551 
1232.866231  	91.657572 
1234.303138  	91.657071 
1235.740045  	91.666465 
1237.176952  	91.667143 
1238.613859  	91.650226 
1240.050766  	91.642628 
1241.487673  	91.647587 
1242.924580  	91.657430 
1244.361487  	91.649247 
1245.798394  	91.627625 
1247.235301  	91.627487 
1248.672208  	91.626018 
1250.109115  	91.621766 
1251.546022  	91.631363 
1252.982929  	91.620033 
1254.419836  	91.607737 
1255.856743  	91.609982 
1257.293650  	91.598441 
1258.730557  	91.599726 
1260.167464  	91.605493 
1261.604371  	91.594109 
1263.041278  	91.594847 
1264.478185  	91.596558 
1265.915092  	91.602978 
1267.351999  	91.607978 
1268.788907  	91.570375 
1270.225814  	91.544945 
1271.662721  	91.563985 
1273.099628  	91.577346 
1274.536535  	91.586520 
1275.973442  	91.587217 
1277.410349  	91.568023 
1278.847256  	91.554779 
1280.284163  	91.553854 
1281.721070  	91.558448 
1283.157977  	91.556983 
1284.594884  	91.558974 
1286.031791  	91.573864 
1287.468698  	91.572884 
1288.905605  	91.576926 
1290.342512  	91.592103 
1291.779419  	91.582076 
1293.216326  	91.587499 
1294.653233  	91.603587 
1296.090140  	91.588773 
1297.527047  	91.586620 
1298.963954  	91.602807 
1300.400861  	91.624489 
1301.837768  	91.615467 
1303.274675  	91.638667 
1304.711582  	91.631974 
1306.148489  	91.633989 
1307.585396  	91.636989 
1309.022303  	91.655291 
1310.459210  	91.660956 
1311.896117  	91.641483 
1313.333024  	91.637727 
1314.769931  	91.642989 
1316.206838  	91.644646 
1317.643745  	91.650142 
1319.080653  	91.647348 
1320.517560  	91.653773 
1321.954467  	91.662155 
1323.391374  	91.661068 
1324.828281  	91.664342 
1326.265188  	91.657338 
1327.702095  	91.653376 
1329.139002  	91.668000 
1330.575909  	91.654801 
1332.012816  	91.643340 
1333.449723  	91.638908 
1334.886630  	91.622661 
1336.323537  	91.614599 
1337.760444  	91.596676 
1339.197351  	91.571822 
1340.634258  	91.572605 
1342.071165  	91.592545 
1343.508072  	91.609757 
1344.944979  	91.604422 
1346.381886  	91.591307 
1347.818793  	91.587303 
1349.255700  	91.567384 
1350.692607  	91.553685 
1352.129514  	91.546859 
1353.566421  	91.528992 
1355.003328  	91.510789 
1356.440235  	91.516181 
1357.877142  	91.506767 
1359.314049  	91.502144 
1360.750956  	91.480303 
1362.187863  	91.422204 
1363.624770  	91.414298 
1365.061677  	91.427320 
1366.498584  	91.423736 
1367.935491  	91.407817 
1369.372399  	91.374135 
1370.809306  	91.365405 
1372.246213  	91.347502 
1373.683120  	91.289335 
1375.120027  	91.248820 
1376.556934  	91.237453 
1377.993841  	91.220243 
1379.430748  	91.205724 
1380.867655  	91.194550 
1382.304562  	91.186588 
1383.741469  	91.166520 
1385.178376  	91.139317 
1386.615283  	91.117595 
1388.052190  	91.102116 
1389.489097  	91.097648 
1390.926004  	91.108703 
1392.362911  	91.121910 
1393.799818  	91.124235 
1395.236725  	91.110211 
1396.673632  	91.114681 
1398.110539  	91.142261 
1399.547446  	91.147803 
1400.984353  	91.167614 
1402.421260  	91.200620 
1403.858167  	91.194119 
1405.295074  	91.194585 
1406.731981  	91.221910 
1408.168888  	91.235835 
1409.605795  	91.263905 
1411.042702  	91.271485 
1412.479609  	91.271496 
1413.916516  	91.296302 
1415.353423  	91.297902 
1416.790330  	91.288967 
1418.227238  	91.296127 
1419.664145  	91.296496 
1421.101052  	91.334122 
1422.537959  	91.364872 
1423.974866  	91.348103 
1425.411773  	91.355390 
1426.848680  	91.389090 
1428.285587  	91.399499 
1429.722494  	91.407775 
1431.159401  	91.400224 
1432.596308  	91.394175 
1434.033215  	91.412180 
1435.470122  	91.407682 
1436.907029  	91.392861 
1438.343936  	91.391137 
1439.780843  	91.408009 
1441.217750  	91.416876 
1442.654657  	91.405357 
1444.091564  	91.411457 
1445.528471  	91.428898 
1446.965378  	91.412645 
1448.402285  	91.382228 
1449.839192  	91.377196 
1451.276099  	91.386594 
1452.713006  	91.394510 
1454.149913  	91.379336 
1455.586820  	91.370376 
1457.023727  	91.320416 
1458.460634  	91.275377 
1459.897541  	91.318924 
1461.334448  	91.339734 
1462.771355  	91.352377 
1464.208262  	91.356397 
1465.645169  	91.313369 
1467.082076  	91.301193 
1468.518984  	91.300557 
1469.955891  	91.302179 
1471.392798  	91.301706 
1472.829705  	91.252532 
1474.266612  	91.223663 
1475.703519  	91.245797 
1477.140426  	91.217573 
1478.577333  	91.223027 
1480.014240  	91.224942 
1481.451147  	91.191555 
1482.888054  	91.180548 
1484.324961  	91.181866 
1485.761868  	91.144536 
1487.198775  	91.128335 
1488.635682  	91.083510 
1490.072589  	91.032739 
1491.509496  	91.011825 
1492.946403  	91.009655 
1494.383310  	91.014807 
1495.820217  	90.988866 
1497.257124  	90.925818 
1498.694031  	90.910281 
1500.130938  	90.852956 
1501.567845  	90.814987 
1503.004752  	90.822104 
1504.441659  	90.803722 
1505.878566  	90.778471 
1507.315473  	90.683813 
1508.752380  	90.578841 
1510.189287  	90.603799 
1511.626194  	90.588125 
1513.063101  	90.559412 
1514.500008  	90.546790 
1515.936915  	90.500115 
1517.373822  	90.451804 
1518.810730  	90.431258 
1520.247637  	90.365145 
1521.684544  	90.307411 
1523.121451  	90.265930 
1524.558358  	90.220728 
1525.995265  	90.178706 
1527.432172  	90.106247 
1528.869079  	90.073011 
1530.305986  	90.051205 
1531.742893  	89.984746 
1533.179800  	89.921211 
1534.616707  	89.799184 
1536.053614  	89.730398 
1537.490521  	89.719624 
1538.927428  	89.648559 
1540.364335  	89.523274 
1541.801242  	89.417394 
1543.238149  	89.248368 
1544.675056  	89.147079 
1546.111963  	89.085032 
1547.548870  	89.027139 
1548.985777  	88.957277 
1550.422684  	88.788903 
1551.859591  	88.674692 
1553.296498  	88.604320 
1554.733405  	88.449318 
1556.170312  	88.383396 
1557.607219  	88.343402 
1559.044126  	88.087457 
1560.481033  	87.895932 
1561.917940  	87.833777 
1563.354847  	87.747603 
1564.791754  	87.691050 
1566.228661  	87.512461 
1567.665569  	87.415708 
1569.102476  	87.318235 
1570.539383  	87.077286 
1571.976290  	87.009334 
1573.413197  	86.900046 
1574.850104  	86.744914 
1576.287011  	86.624748 
1577.723918  	86.407567 
1579.160825  	86.271996 
1580.597732  	86.144995 
1582.034639  	85.947458 
1583.471546  	85.823056 
1584.908453  	85.663137 
1586.345360  	85.431921 
1587.782267  	85.284988 
1589.219174  	85.032623 
1590.656081  	84.794370 
1592.092988  	84.609973 
1593.529895  	84.322640 
1594.966802  	84.085834 
1596.403709  	83.832601 
1597.840616  	83.510913 
1599.277523  	83.288821 
1600.714430  	82.948812 
1602.151337  	82.591037 
1603.588244  	82.264541 
1605.025151  	81.870847 
1606.462058  	81.527952 
1607.898965  	81.195646 
1609.335872  	80.784346 
1610.772779  	80.431808 
1612.209686  	80.040870 
1613.646593  	79.639742 
1615.083500  	79.369210 
1616.520407  	78.864300 
1617.957315  	78.403959 
1619.394222  	78.132162 
1620.831129  	77.735830 
1622.268036  	77.458515 
1623.704943  	77.097538 
1625.141850  	76.719510 
1626.578757  	76.587946 
1628.015664  	76.301794 
1629.452571  	76.079258 
1630.889478  	76.013943 
1632.326385  	75.815542 
1633.763292  	75.754587 
1635.200199  	75.770035 
1636.637106  	75.635121 
1638.074013  	75.765972 
1639.510920  	75.782401 
1640.947827  	75.844349 
1642.384734  	76.073702 
1643.821641  	76.169724 
1645.258548  	76.300457 
1646.695455  	76.555723 
1648.132362  	76.789185 
1649.569269  	77.137672 
1651.006176  	77.301129 
1652.443083  	77.360060 
1653.879990  	78.159945 
1655.316897  	78.329585 
1656.753804  	78.525349 
1658.190711  	78.887160 
1659.627618  	79.174745 
1661.064525  	79.519290 
1662.501432  	79.880834 
1663.938339  	80.246275 
1665.375246  	80.624987 
1666.812154  	80.951130 
1668.249061  	81.283278 
1669.685968  	81.723829 
1671.122875  	82.095926 
1672.559782  	82.455387 
1673.996689  	82.814789 
1675.433596  	83.145176 
1676.870503  	83.572943 
1678.307410  	83.919471 
1679.744317  	84.226537 
1681.181224  	84.639387 
1682.618131  	84.950467 
1684.055038  	85.260604 
1685.491945  	85.775382 
1686.928852  	86.044996 
1688.365759  	86.361403 
1689.802666  	86.723838 
1691.239573  	87.037107 
1692.676480  	87.387093 
1694.113387  	87.634946 
1695.550294  	87.892102 
1696.987201  	88.258370 
1698.424108  	88.442265 
1699.861015  	88.650605 
1701.297922  	88.971294 
1702.734829  	89.181130 
1704.171736  	89.445545 
1705.608643  	89.687003 
1707.045550  	89.898407 
1708.482457  	90.146807 
1709.919364  	90.360079 
1711.356271  	90.589427 
1712.793178  	90.835320 
1714.230085  	91.034341 
1715.666992  	91.274495 
1717.103900  	91.481735 
1718.540807  	91.617479 
1719.977714  	91.878106 
1721.414621  	92.073986 
1722.851528  	92.259386 
1724.288435  	92.475163 
1725.725342  	92.659652 
1727.162249  	92.868330 
1728.599156  	92.978856 
1730.036063  	93.062252 
1731.472970  	93.200008 
1732.909877  	93.303105 
1734.346784  	93.385588 
1735.783691  	93.521131 
1737.220598  	93.601226 
1738.657505  	93.699234 
1740.094412  	93.802345 
1741.531319  	93.874866 
1742.968226  	93.980527 
1744.405133  	94.049102 
1745.842040  	94.134821 
1747.278947  	94.263757 
1748.715854  	94.331937 
1750.152761  	94.417674 
1751.589668  	94.492774 
1753.026575  	94.546790 
1754.463482  	94.682258 
1755.900389  	94.753653 
1757.337296  	94.762601 
1758.774203  	94.859662 
1760.211110  	94.914982 
1761.648017  	94.947707 
1763.084924  	95.015050 
1764.521831  	95.058520 
1765.958738  	95.136786 
1767.395646  	95.161487 
1768.832553  	95.175699 
1770.269460  	95.249517 
1771.706367  	95.268155 
1773.143274  	95.273980 
1774.580181  	95.351592 
1776.017088  	95.380388 
1777.453995  	95.400962 
1778.890902  	95.429063 
1780.327809  	95.440166 
1781.764716  	95.501444 
1783.201623  	95.536243 
1784.638530  	95.569127 
1786.075437  	95.619293 
1787.512344  	95.627544 
1788.949251  	95.675109 
1790.386158  	95.724114 
1791.823065  	95.725570 
1793.259972  	95.739299 
1794.696879  	95.753564 
1796.133786  	95.769261 
1797.570693  	95.826418 
1799.007600  	95.838445 
1800.444507  	95.870885 
1801.881414  	95.897829 
1803.318321  	95.895182 
1804.755228  	95.932429 
1806.192135  	95.959860 
1807.629042  	95.971655 
1809.065949  	95.996269 
1810.502856  	96.001018 
1811.939763  	96.015822 
1813.376670  	96.052983 
1814.813577  	96.070522 
1816.250485  	96.095850 
1817.687392  	96.085637 
1819.124299  	96.078325 
1820.561206  	96.119165 
1821.998113  	96.132810 
1823.435020  	96.154780 
1824.871927  	96.158733 
1826.308834  	96.129034 
1827.745741  	96.209363 
1829.182648  	96.246665 
1830.619555  	96.176290 
1832.056462  	96.194660 
1833.493369  	96.208189 
1834.930276  	96.223061 
1836.367183  	96.244482 
1837.804090  	96.220054 
1839.240997  	96.231575 
1840.677904  	96.255112 
1842.114811  	96.269700 
1843.551718  	96.298662 
1844.988625  	96.264812 
1846.425532  	96.273848 
1847.862439  	96.336838 
1849.299346  	96.321814 
1850.736253  	96.333853 
1852.173160  	96.372097 
1853.610067  	96.362937 
1855.046974  	96.380493 
1856.483881  	96.353718 
1857.920788  	96.332216 
1859.357695  	96.374205 
1860.794602  	96.352328 
1862.231509  	96.344652 
1863.668416  	96.359645 
1865.105323  	96.379136 
1866.542231  	96.428580 
1867.979138  	96.370845 
1869.416045  	96.288273 
1870.852952  	96.350428 
1872.289859  	96.379615 
1873.726766  	96.428174 
1875.163673  	96.459526 
1876.600580  	96.383792 
1878.037487  	96.394014 
1879.474394  	96.396660 
1880.911301  	96.385436 
1882.348208  	96.465957 
1883.785115  	96.480371 
1885.222022  	96.475302 
1886.658929  	96.479309 
1888.095836  	96.461023 
1889.532743  	96.462460 
1890.969650  	96.419230 
1892.406557  	96.415099 
1893.843464  	96.475354 
1895.280371  	96.422839 
1896.717278  	96.411964 
1898.154185  	96.443193 
1899.591092  	96.388011 
1901.027999  	96.429187 
1902.464906  	96.431214 
1903.901813  	96.385532 
1905.338720  	96.422044 
1906.775627  	96.378860 
1908.212534  	96.330525 
1909.649441  	96.390947 
1911.086348  	96.376918 
1912.523255  	96.364984 
1913.960162  	96.345523 
1915.397069  	96.334849 
1916.833977  	96.409914 
1918.270884  	96.380226 
1919.707791  	96.379777 
1921.144698  	96.473502 
1922.581605  	96.374946 
1924.018512  	96.270005 
1925.455419  	96.290219 
1926.892326  	96.361811 
1928.329233  	96.348627 
1929.766140  	96.495433 
1931.203047  	96.287156 
1932.639954  	96.282593 
1934.076861  	96.296564 
1935.513768  	96.360186 
1936.950675  	96.437676 
1938.387582  	96.318304 
1939.824489  	96.333387 
1941.261396  	96.430279 
1942.698303  	96.393844 
1944.135210  	96.392770 
1945.572117  	96.342735 
1947.009024  	96.338316 
1948.445931  	96.368981 
1949.882838  	96.370150 
1951.319745  	96.497945 
1952.756652  	96.512526 
1954.193559  	96.309078 
1955.630466  	96.266075 
1957.067373  	96.406236 
1958.504280  	96.474783 
1959.941187  	96.266525 
1961.378094  	96.096711 
1962.815001  	96.287101 
1964.251908  	96.365749 
1965.688816  	96.430217 
1967.125723  	96.630673 
1968.562630  	96.426357 
1969.999537  	96.313554 
1971.436444  	96.237124 
1972.873351  	95.872774 
1974.310258  	95.985757 
1975.747165  	96.320447 
1977.184072  	96.071758 
1978.620979  	95.732010 
1980.057886  	95.707607 
1981.494793  	95.838203 
1982.931700  	95.857667 
1984.368607  	95.771313 
1985.805514  	95.801478 
1987.242421  	95.764112 
1988.679328  	95.715592 
1990.116235  	95.743424 
1991.553142  	95.687124 
1992.990049  	95.652374 
1994.426956  	95.655772 
1995.863863  	95.617234 
1997.300770  	95.874904 
1998.737677  	96.018768 
2000.174584  	95.822621 
2001.611491  	95.845167 
2003.048398  	95.851267 
2004.485305  	95.895181 
2005.922212  	96.010355 
2007.359119  	95.710440 
2008.796026  	95.497334 
2010.232933  	95.405410 
2011.669840  	95.260983 
2013.106747  	95.436546 
2014.543654  	95.427408 
2015.980562  	95.362172 
2017.417469  	95.744252 
2018.854376  	95.718345 
2020.291283  	95.382722 
2021.728190  	95.285717 
2023.165097  	95.396136 
2024.602004  	95.725581 
2026.038911  	95.724882 
2027.475818  	95.446840 
2028.912725  	95.392405 
2030.349632  	95.225470 
2031.786539  	95.035713 
2033.223446  	95.011772 
2034.660353  	95.009921 
2036.097260  	95.152724 
2037.534167  	95.180752 
2038.971074  	95.154153 
2040.407981  	95.362552 
2041.844888  	95.437544 
2043.281795  	95.298786 
2044.718702  	95.025967 
2046.155609  	94.834274 
2047.592516  	94.868293 
2049.029423  	94.728365 
2050.466330  	94.759827 
2051.903237  	95.168146 
2053.340144  	95.229502 
2054.777051  	95.096570 
2056.213958  	95.089404 
2057.650865  	95.007311 
2059.087772  	95.058351 
2060.524679  	95.102804 
2061.961586  	95.059278 
2063.398493  	95.272160 
2064.835401  	95.275094 
2066.272308  	94.932496 
2067.709215  	94.846374 
2069.146122  	94.944888 
2070.583029  	95.016278 
2072.019936  	95.059017 
2073.456843  	95.002857 
2074.893750  	94.914220 
2076.330657  	94.841469 
2077.767564  	94.829688 
2079.204471  	94.813108 
2080.641378  	94.752323 
2082.078285  	94.872478 
2083.515192  	95.023199 
2084.952099  	94.977075 
2086.389006  	94.920728 
2087.825913  	94.843886 
2089.262820  	94.817938 
2090.699727  	94.960339 
2092.136634  	95.015643 
2093.573541  	95.021450 
2095.010448  	95.027139 
2096.447355  	94.837295 
2097.884262  	94.692360 
2099.321169  	94.755139 
2100.758076  	94.817169 
2102.194983  	94.815139 
2103.631890  	94.802045 
2105.068797  	94.864296 
2106.505704  	94.868992 
2107.942611  	94.703754 
2109.379518  	94.685964 
2110.816425  	94.859479 
2112.253332  	94.903091 
2113.690239  	94.816536 
2115.127147  	94.778324 
2116.564054  	94.842150 
2118.000961  	94.893687 
2119.437868  	94.849593 
2120.874775  	94.821707 
2122.311682  	94.880315 
2123.748589  	94.979248 
2125.185496  	94.944754 
2126.622403  	94.791673 
2128.059310  	94.862025 
2129.496217  	95.002350 
2130.933124  	94.943266 
2132.370031  	94.972787 
2133.806938  	95.037729 
2135.243845  	95.024914 
2136.680752  	95.100145 
2138.117659  	95.026156 
2139.554566  	94.954896 
2140.991473  	95.122117 
2142.428380  	95.164444 
2143.865287  	95.076737 
2145.302194  	94.968190 
2146.739101  	94.932923 
2148.176008  	95.064696 
2149.612915  	95.082281 
2151.049822  	95.206936 
2152.486729  	95.398042 
2153.923636  	95.154827 
2155.360543  	95.132697 
2156.797450  	95.338779 
2158.234357  	95.053063 
2159.671264  	94.784276 
2161.108171  	94.618299 
2162.545078  	94.548562 
2163.981985  	94.745812 
2165.418893  	94.606788 
2166.855800  	94.448978 
2168.292707  	94.560764 
2169.729614  	94.568420 
2171.166521  	94.838167 
2172.603428  	95.186286 
2174.040335  	95.071512 
2175.477242  	94.922141 
2176.914149  	94.886867 
2178.351056  	94.836155 
2179.787963  	94.852352 
2181.224870  	94.890275 
2182.661777  	95.001851 
2184.098684  	95.052438 
2185.535591  	94.959107 
2186.972498  	94.893099 
2188.409405  	94.842624 
2189.846312  	94.842919 
2191.283219  	94.876139 
2192.720126  	94.897863 
2194.157033  	94.998411 
2195.593940  	95.040767 
2197.030847  	95.119927 
2198.467754  	95.286645 
2199.904661  	95.210722 
2201.341568  	95.140149 
2202.778475  	95.147066 
2204.215382  	94.978011 
2205.652289  	95.014515 
2207.089196  	95.182594 
2208.526103  	95.131663 
2209.963010  	95.140855 
2211.399917  	95.155403 
2212.836824  	95.135616 
2214.273732  	95.280220 
2215.710639  	95.316129 
2217.147546  	95.167762 
2218.584453  	95.047580 
2220.021360  	95.076179 
2221.458267  	95.270877 
2222.895174  	95.369882 
2224.332081  	95.361813 
2225.768988  	95.418451 
2227.205895  	95.430587 
2228.642802  	95.453239 
2230.079709  	95.440228 
2231.516616  	95.323894 
2232.953523  	95.398803 
2234.390430  	95.578225 
2235.827337  	95.591934 
2237.264244  	95.557555 
2238.701151  	95.525779 
2240.138058  	95.497061 
2241.574965  	95.462372 
2243.011872  	95.392254 
2244.448779  	95.392617 
2245.885686  	95.410912 
2247.322593  	95.373209 
2248.759500  	95.432964 
2250.196407  	95.565353 
2251.633314  	95.579817 
2253.070221  	95.481909 
2254.507128  	95.501570 
2255.944035  	95.607066 
2257.380942  	95.581779 
2258.817849  	95.604271 
2260.254756  	95.707233 
2261.691663  	95.666320 
2263.128570  	95.661596 
2264.565478  	95.715912 
2266.002385  	95.678056 
2267.439292  	95.725614 
2268.876199  	95.786464 
2270.313106  	95.720600 
2271.750013  	95.689848 
2273.186920  	95.705087 
2274.623827  	95.752463 
2276.060734  	95.838051 
2277.497641  	95.834033 
2278.934548  	95.753567 
2280.371455  	95.690810 
2281.808362  	95.687369 
2283.245269  	95.714325 
2284.682176  	95.707815 
2286.119083  	95.727500 
2287.555990  	95.778600 
2288.992897  	95.786687 
2290.429804  	95.800965 
2291.866711  	95.836737 
2293.303618  	95.856698 
2294.740525  	95.854609 
2296.177432  	95.842218 
2297.614339  	95.863257 
2299.051246  	95.844310 
2300.488153  	95.874379 
2301.925060  	95.881114 
2303.361967  	95.821691 
2304.798874  	95.782711 
2306.235781  	95.850044 
2307.672688  	95.830453 
2309.109595  	95.777372 
2310.546502  	95.854298 
2311.983409  	95.913921 
2313.420317  	95.881116 
2314.857224  	95.809894 
2316.294131  	95.771458 
2317.731038  	95.821880 
2319.167945  	95.855487 
2320.604852  	95.851261 
2322.041759  	95.820398 
2323.478666  	95.705218 
2324.915573  	95.714036 
2326.352480  	95.882797 
2327.789387  	95.964242 
2329.226294  	95.954719 
2330.663201  	95.965317 
2332.100108  	96.023348 
2333.537015  	96.098271 
2334.973922  	96.109822 
2336.410829  	96.142138 
2337.847736  	96.217240 
2339.284643  	96.194244 
2340.721550  	96.141982 
2342.158457  	96.128685 
2343.595364  	96.087629 
2345.032271  	96.026142 
2346.469178  	95.993972 
2347.906085  	96.042495 
2349.342992  	96.131647 
2350.779899  	96.210501 
2352.216806  	96.249855 
2353.653713  	96.235850 
2355.090620  	96.228206 
2356.527527  	96.273066 
2357.964434  	96.322772 
2359.401341  	96.411762 
2360.838248  	96.488677 
2362.275155  	96.466781 
2363.712063  	96.453013 
2365.148970  	96.401376 
2366.585877  	96.358828 
2368.022784  	96.452878 
2369.459691  	96.529665 
2370.896598  	96.580958 
2372.333505  	96.640193 
2373.770412  	96.608667 
2375.207319  	96.570291 
2376.644226  	96.545314 
2378.081133  	96.515801 
2379.518040  	96.537568 
2380.954947  	96.546949 
2382.391854  	96.552018 
2383.828761  	96.604699 
2385.265668  	96.643705 
2386.702575  	96.681856 
2388.139482  	96.716541 
2389.576389  	96.705378 
2391.013296  	96.704533 
2392.450203  	96.718692 
2393.887110  	96.705172 
2395.324017  	96.687673 
2396.760924  	96.674532 
2398.197831  	96.694813 
2399.634738  	96.733691 
2401.071645  	96.716345 
2402.508552  	96.690148 
2403.945459  	96.711421 
2405.382366  	96.740457 
2406.819273  	96.742180 
2408.256180  	96.719346 
2409.693087  	96.726005 
2411.129994  	96.765267 
2412.566901  	96.771300 
2414.003809  	96.749532 
2415.440716  	96.751495 
2416.877623  	96.808156 
2418.314530  	96.865600 
2419.751437  	96.849996 
2421.188344  	96.835199 
2422.625251  	96.851360 
2424.062158  	96.822524 
2425.499065  	96.781963 
2426.935972  	96.766725 
2428.372879  	96.754912 
2429.809786  	96.763810 
2431.246693  	96.805778 
2432.683600  	96.863574 
2434.120507  	96.896496 
2435.557414  	96.908385 
2436.994321  	96.927501 
2438.431228  	96.898114 
2439.868135  	96.844211 
2441.305042  	96.855461 
2442.741949  	96.906192 
2444.178856  	96.942941 
2445.615763  	96.919991 
2447.052670  	96.872712 
2448.489577  	96.891581 
2449.926484  	96.905568 
2451.363391  	96.885241 
2452.800298  	96.896978 
2454.237205  	96.904914 
2455.674112  	96.932690 
2457.111019  	96.977451 
2458.547926  	96.963778 
2459.984833  	96.971019 
2461.421740  	96.998209 
2462.858648  	96.965122 
2464.295555  	96.948280 
2465.732462  	96.967195 
2467.169369  	96.982142 
2468.606276  	97.000245 
2470.043183  	96.993027 
2471.480090  	96.967607 
2472.916997  	96.969151 
2474.353904  	97.026466 
2475.790811  	97.080050 
2477.227718  	97.041146 
2478.664625  	97.014834 
2480.101532  	97.038165 
2481.538439  	96.999556 
2482.975346  	96.978837 
2484.412253  	97.003484 
2485.849160  	96.999055 
2487.286067  	97.033932 
2488.722974  	97.081919 
2490.159881  	97.086633 
2491.596788  	97.076747 
2493.033695  	97.032575 
2494.470602  	97.017882 
2495.907509  	97.031657 
2497.344416  	96.999409 
2498.781323  	97.012051 
2500.218230  	97.043164 
2501.655137  	97.032736 
2503.092044  	97.094972 
2504.528951  	97.162179 
2505.965858  	97.136195 
2507.402765  	97.109261 
2508.839672  	97.103312 
2510.276579  	97.085295 
2511.713486  	97.057983 
2513.150394  	97.053930 
2514.587301  	97.076991 
2516.024208  	97.055815 
2517.461115  	97.039273 
2518.898022  	97.085376 
2520.334929  	97.096824 
2521.771836  	97.077267 
2523.208743  	97.092265 
2524.645650  	97.132038 
2526.082557  	97.167313 
2527.519464  	97.147220 
2528.956371  	97.123930 
2530.393278  	97.142372 
2531.830185  	97.129757 
2533.267092  	97.113142 
2534.703999  	97.098888 
2536.140906  	97.071917 
2537.577813  	97.126975 
2539.014720  	97.166907 
2540.451627  	97.094141 
2541.888534  	97.072246 
2543.325441  	97.123012 
2544.762348  	97.153370 
2546.199255  	97.172449 
2547.636162  	97.149927 
2549.073069  	97.094911 
2550.509976  	97.078471 
2551.946883  	97.101667 
2553.383790  	97.140938 
2554.820697  	97.173186 
2556.257604  	97.170172 
2557.694511  	97.129061 
2559.131418  	97.093801 
2560.568325  	97.108512 
2562.005232  	97.135112 
2563.442140  	97.134677 
2564.879047  	97.122821 
2566.315954  	97.112064 
2567.752861  	97.118019 
2569.189768  	97.120716 
2570.626675  	97.101523 
2572.063582  	97.100777 
2573.500489  	97.121719 
2574.937396  	97.144208 
2576.374303  	97.148175 
2577.811210  	97.127120 
2579.248117  	97.152204 
2580.685024  	97.199576 
2582.121931  	97.178757 
2583.558838  	97.155048 
2584.995745  	97.162444 
2586.432652  	97.142884 
2587.869559  	97.118207 
2589.306466  	97.120008 
2590.743373  	97.144120 
2592.180280  	97.160665 
2593.617187  	97.149236 
2595.054094  	97.161089 
2596.491001  	97.185764 
2597.927908  	97.164132 
2599.364815  	97.131527 
2600.801722  	97.123537 
2602.238629  	97.128760 
2603.675536  	97.141379 
2605.112443  	97.161659 
2606.549350  	97.177863 
2607.986257  	97.158062 
2609.423164  	97.137003 
2610.860071  	97.152303 
2612.296979  	97.145085 
2613.733886  	97.134393 
2615.170793  	97.167544 
2616.607700  	97.179342 
2618.044607  	97.170942 
2619.481514  	97.183027 
2620.918421  	97.174980 
2622.355328  	97.140539 
2623.792235  	97.116428 
2625.229142  	97.120775 
2626.666049  	97.133943 
2628.102956  	97.125900 
2629.539863  	97.130000 
2630.976770  	97.157423 
2632.413677  	97.163036 
2633.850584  	97.154346 
2635.287491  	97.150518 
2636.724398  	97.147273 
2638.161305  	97.143359 
2639.598212  	97.131760 
2641.035119  	97.127418 
2642.472026  	97.130014 
2643.908933  	97.119800 
2645.345840  	97.114517 
2646.782747  	97.114170 
2648.219654  	97.111823 
2649.656561  	97.126174 
2651.093468  	97.138586 
2652.530375  	97.134425 
2653.967282  	97.130212 
2655.404189  	97.133509 
2656.841096  	97.153430 
2658.278003  	97.163996 
2659.714910  	97.137139 
2661.151817  	97.119698 
2662.588725  	97.138662 
2664.025632  	97.157912 
2665.462539  	97.163601 
2666.899446  	97.166220 
2668.336353  	97.166391 
2669.773260  	97.162862 
2671.210167  	97.161629 
2672.647074  	97.162302 
2674.083981  	97.157129 
2675.520888  	97.150411 
2676.957795  	97.141913 
2678.394702  	97.130858 
2679.831609  	97.132904 
2681.268516  	97.143138 
2682.705423  	97.145067 
2684.142330  	97.140634 
2685.579237  	97.135337 
2687.016144  	97.130868 
2688.453051  	97.108999 
2689.889958  	97.075304 
2691.326865  	97.084455 
2692.763772  	97.124613 
2694.200679  	97.133850 
2695.637586  	97.122038 
2697.074493  	97.117185 
2698.511400  	97.113629 
2699.948307  	97.107194 
2701.385214  	97.099718 
2702.822121  	97.100449 
2704.259028  	97.108592 
2705.695935  	97.108125 
2707.132842  	97.098266 
2708.569749  	97.087797 
2710.006656  	97.075207 
2711.443564  	97.051000 
2712.880471  	97.029176 
2714.317378  	97.039025 
2715.754285  	97.059669 
2717.191192  	97.055496 
2718.628099  	97.040821 
2720.065006  	97.035312 
2721.501913  	97.033913 
2722.938820  	97.024780 
2724.375727  	97.008145 
2725.812634  	96.990092 
2727.249541  	96.969877 
2728.686448  	96.970682 
2730.123355  	96.990336 
2731.560262  	96.979577 
2732.997169  	96.958344 
2734.434076  	96.958556 
2735.870983  	96.947499 
2737.307890  	96.936093 
2738.744797  	96.937638 
2740.181704  	96.925671 
2741.618611  	96.918675 
2743.055518  	96.921610 
2744.492425  	96.912557 
2745.929332  	96.898935 
2747.366239  	96.879375 
2748.803146  	96.868057 
2750.240053  	96.879910 
2751.676960  	96.877776 
2753.113867  	96.853634 
2754.550774  	96.839304 
2755.987681  	96.836558 
2757.424588  	96.824687 
2758.861495  	96.797188 
2760.298402  	96.783250 
2761.735310  	96.792785 
2763.172217  	96.790800 
2764.609124  	96.773881 
2766.046031  	96.759242 
2767.482938  	96.747853 
2768.919845  	96.743229 
2770.356752  	96.739653 
2771.793659  	96.740054 
2773.230566  	96.744233 
2774.667473  	96.724536 
2776.104380  	96.699781 
2777.541287  	96.701071 
2778.978194  	96.692773 
2780.415101  	96.665337 
2781.852008  	96.653576 
2783.288915  	96.644628 
2784.725822  	96.621702 
2786.162729  	96.609222 
2787.599636  	96.603114 
2789.036543  	96.581612 
2790.473450  	96.561721 
2791.910357  	96.546857 
2793.347264  	96.524676 
2794.784171  	96.515962 
2796.221078  	96.516140 
2797.657985  	96.502895 
2799.094892  	96.486165 
2800.531799  	96.457849 
2801.968706  	96.428228 
2803.405613  	96.428906 
2804.842520  	96.418290 
2806.279427  	96.379032 
2807.716334  	96.361855 
2809.153241  	96.350927 
2810.590148  	96.315706 
2812.027056  	96.288584 
2813.463963  	96.279970 
2814.900870  	96.265082 
2816.337777  	96.239834 
2817.774684  	96.222543 
2819.211591  	96.216852 
2820.648498  	96.205296 
2822.085405  	96.188019 
2823.522312  	96.166003 
2824.959219  	96.125860 
2826.396126  	96.088103 
2827.833033  	96.076268 
2829.269940  	96.067955 
2830.706847  	96.046698 
2832.143754  	96.022998 
2833.580661  	95.997397 
2835.017568  	95.976156 
2836.454475  	95.975015 
2837.891382  	95.968781 
2839.328289  	95.929126 
2840.765196  	95.878417 
2842.202103  	95.829115 
2843.639010  	95.785772 
2845.075917  	95.765759 
2846.512824  	95.738654 
2847.949731  	95.698164 
2849.386638  	95.687965 
2850.823545  	95.668103 
2852.260452  	95.601969 
2853.697359  	95.558855 
2855.134266  	95.559966 
2856.571173  	95.552033 
2858.008080  	95.525092 
2859.444987  	95.501616 
2860.881895  	95.482404 
2862.318802  	95.459374 
2863.755709  	95.439614 
2865.192616  	95.414225 
2866.629523  	95.368839 
2868.066430  	95.335384 
2869.503337  	95.321443 
2870.940244  	95.289695 
2872.377151  	95.247865 
2873.814058  	95.214215 
2875.250965  	95.182438 
2876.687872  	95.153500 
2878.124779  	95.120288 
2879.561686  	95.084900 
2880.998593  	95.048021 
2882.435500  	94.992101 
2883.872407  	94.944013 
2885.309314  	94.928683 
2886.746221  	94.914001 
2888.183128  	94.881082 
2889.620035  	94.830415 
2891.056942  	94.771755 
2892.493849  	94.726080 
2893.930756  	94.682849 
2895.367663  	94.636913 
2896.804570  	94.599557 
2898.241477  	94.556688 
2899.678384  	94.516232 
2901.115291  	94.482339 
2902.552198  	94.418684 
2903.989105  	94.348229 
2905.426012  	94.306918 
2906.862919  	94.245577 
2908.299826  	94.160460 
2909.736733  	94.119220 
2911.173641  	94.099355 
2912.610548  	94.040816 
2914.047455  	93.971231 
2915.484362  	93.914640 
2916.921269  	93.847113 
2918.358176  	93.776316 
2919.795083  	93.712046 
2921.231990  	93.642846 
2922.668897  	93.579078 
2924.105804  	93.522168 
2925.542711  	93.467468 
2926.979618  	93.423940 
2928.416525  	93.369855 
2929.853432  	93.303151 
2931.290339  	93.259373 
2932.727246  	93.223538 
2934.164153  	93.178809 
2935.601060  	93.133278 
2937.037967  	93.056771 
2938.474874  	92.961583 
2939.911781  	92.907640 
2941.348688  	92.880326 
2942.785595  	92.827315 
2944.222502  	92.741736 
2945.659409  	92.658881 
2947.096316  	92.603118 
2948.533223  	92.545259 
2949.970130  	92.468785 
2951.407037  	92.392565 
2952.843944  	92.317971 
2954.280851  	92.251065 
2955.717758  	92.184275 
2957.154665  	92.098361 
2958.591572  	92.022136 
2960.028479  	91.965079 
2961.465387  	91.898918 
2962.902294  	91.820889 
2964.339201  	91.738514 
2965.776108  	91.660051 
2967.213015  	91.572804 
2968.649922  	91.484386 
2970.086829  	91.446632 
2971.523736  	91.411003 
2972.960643  	91.311222 
2974.397550  	91.201815 
2975.834457  	91.111159 
2977.271364  	91.034584 
2978.708271  	90.959368 
2980.145178  	90.847419 
2981.582085  	90.750568 
2983.018992  	90.665247 
2984.455899  	90.520995 
2985.892806  	90.399359 
2987.329713  	90.309798 
2988.766620  	90.183276 
2990.203527  	90.092744 
2991.640434  	90.016213 
2993.077341  	89.883276 
2994.514248  	89.759190 
2995.951155  	89.651504 
2997.388062  	89.542312 
2998.824969  	89.433685 
3000.261876  	89.293666 
3001.698783  	89.165335 
3003.135690  	89.067871 
3004.572597  	88.965956 
3006.009504  	88.869381 
3007.446411  	88.747304 
3008.883318  	88.594834 
3010.320226  	88.453748 
3011.757133  	88.313723 
3013.194040  	88.183104 
3014.630947  	88.059030 
3016.067854  	87.931861 
3017.504761  	87.817598 
3018.941668  	87.682107 
3020.378575  	87.556046 
3021.815482  	87.461507 
3023.252389  	87.312778 
3024.689296  	87.148531 
3026.126203  	87.009053 
3027.563110  	86.843732 
3029.000017  	86.708528 
3030.436924  	86.584772 
3031.873831  	86.403492 
3033.310738  	86.254340 
3034.747645  	86.151953 
3036.184552  	86.016925 
3037.621459  	85.854953 
3039.058366  	85.687326 
3040.495273  	85.510905 
3041.932180  	85.331562 
3043.369087  	85.168157 
3044.805994  	85.012056 
3046.242901  	84.860366 
3047.679808  	84.736177 
3049.116715  	84.568537 
3050.553622  	84.344863 
3051.990529  	84.171538 
3053.427436  	84.013595 
3054.864343  	83.836235 
3056.301250  	83.673862 
3057.738157  	83.488308 
3059.175064  	83.308843 
3060.611972  	83.132034 
3062.048879  	82.918821 
3063.485786  	82.752630 
3064.922693  	82.598248 
3066.359600  	82.405407 
3067.796507  	82.239123 
3069.233414  	82.045519 
3070.670321  	81.823541 
3072.107228  	81.621802 
3073.544135  	81.415594 
3074.981042  	81.253600 
3076.417949  	81.084318 
3077.854856  	80.854418 
3079.291763  	80.668920 
3080.728670  	80.491082 
3082.165577  	80.280458 
3083.602484  	80.077945 
3085.039391  	79.848893 
3086.476298  	79.637169 
3087.913205  	79.426420 
3089.350112  	79.167660 
3090.787019  	78.966524 
3092.223926  	78.796713 
3093.660833  	78.581129 
3095.097740  	78.350928 
3096.534647  	78.100933 
3097.971554  	77.866121 
3099.408461  	77.646837 
3100.845368  	77.423271 
3102.282275  	77.233432 
3103.719182  	77.016412 
3105.156089  	76.782453 
3106.592996  	76.573470 
3108.029903  	76.335588 
3109.466811  	76.126467 
3110.903718  	75.912175 
3112.340625  	75.624192 
3113.777532  	75.374509 
3115.214439  	75.141757 
3116.651346  	74.894387 
3118.088253  	74.657317 
3119.525160  	74.390894 
3120.962067  	74.197753 
3122.398974  	74.027781 
3123.835881  	73.762723 
3125.272788  	73.540328 
3126.709695  	73.319760 
3128.146602  	73.059626 
3129.583509  	72.852608 
3131.020416  	72.606964 
3132.457323  	72.366837 
3133.894230  	72.158568 
3135.331137  	71.883312 
3136.768044  	71.651084 
3138.204951  	71.423690 
3139.641858  	71.167795 
3141.078765  	70.986123 
3142.515672  	70.731438 
3143.952579  	70.431326 
3145.389486  	70.210100 
3146.826393  	69.979435 
3148.263300  	69.787773 
3149.700207  	69.582256 
3151.137114  	69.312582 
3152.574021  	69.109518 
3154.010928  	68.892804 
3155.447835  	68.667437 
3156.884742  	68.466782 
3158.321649  	68.203121 
3159.758557  	67.997787 
3161.195464  	67.777523 
3162.632371  	67.486660 
3164.069278  	67.321274 
3165.506185  	67.133561 
3166.943092  	66.900295 
3168.379999  	66.746454 
3169.816906  	66.520698 
3171.253813  	66.311621 
3172.690720  	66.136733 
3174.127627  	65.886074 
3175.564534  	65.716181 
3177.001441  	65.553922 
3178.438348  	65.354046 
3179.875255  	65.183598 
3181.312162  	64.922703 
3182.749069  	64.728860 
3184.185976  	64.607708 
3185.622883  	64.388878 
3187.059790  	64.238981 
3188.496697  	64.070043 
3189.933604  	63.845276 
3191.370511  	63.728218 
3192.807418  	63.537824 
3194.244325  	63.344429 
3195.681232  	63.239730 
3197.118139  	63.051874 
3198.555046  	62.918182 
3199.991953  	62.800370 
3201.428860  	62.608383 
3202.865767  	62.502582 
3204.302674  	62.384055 
3205.739581  	62.249119 
3207.176488  	62.125883 
3208.613395  	61.947733 
3210.050303  	61.869837 
3211.487210  	61.761835 
3212.924117  	61.580695 
3214.361024  	61.531910 
3215.797931  	61.408756 
3217.234838  	61.250613 
3218.671745  	61.190126 
3220.108652  	61.049395 
3221.545559  	60.979759 
3222.982466  	60.952794 
3224.419373  	60.839801 
3225.856280  	60.813182 
3227.293187  	60.721471 
3228.730094  	60.576752 
3230.167001  	60.544480 
3231.603908  	60.451580 
3233.040815  	60.377084 
3234.477722  	60.332954 
3235.914629  	60.246730 
3237.351536  	60.264029 
3238.788443  	60.204477 
3240.225350  	60.073440 
3241.662257  	60.056482 
3243.099164  	60.018355 
3244.536071  	60.034839 
3245.972978  	60.043002 
3247.409885  	59.935848 
3248.846792  	59.936352 
3250.283699  	59.882178 
3251.720606  	59.773032 
3253.157513  	59.810560 
3254.594420  	59.760825 
3256.031327  	59.729139 
3257.468234  	59.796074 
3258.905142  	59.731690 
3260.342049  	59.707733 
3261.778956  	59.713374 
3263.215863  	59.650534 
3264.652770  	59.640804 
3266.089677  	59.580987 
3267.526584  	59.545818 
3268.963491  	59.569480 
3270.400398  	59.530877 
3271.837305  	59.574984 
3273.274212  	59.588197 
3274.711119  	59.527900 
3276.148026  	59.574727 
3277.584933  	59.557621 
3279.021840  	59.535078 
3280.458747  	59.568126 
3281.895654  	59.506554 
3283.332561  	59.519930 
3284.769468  	59.527276 
3286.206375  	59.458663 
3287.643282  	59.511782 
3289.080189  	59.507742 
3290.517096  	59.473954 
3291.954003  	59.529207 
3293.390910  	59.496424 
3294.827817  	59.475434 
3296.264724  	59.454976 
3297.701631  	59.395810 
3299.138538  	59.424308 
3300.575445  	59.389971 
3302.012352  	59.387235 
3303.449259  	59.452672 
3304.886166  	59.373310 
3306.323073  	59.364501 
3307.759980  	59.377124 
3309.196888  	59.301558 
3310.633795  	59.375189 
3312.070702  	59.387736 
3313.507609  	59.339402 
3314.944516  	59.398970 
3316.381423  	59.353818 
3317.818330  	59.360934 
3319.255237  	59.423928 
3320.692144  	59.367303 
3322.129051  	59.400696 
3323.565958  	59.390239 
3325.002865  	59.328884 
3326.439772  	59.397361 
3327.876679  	59.347158 
3329.313586  	59.295355 
3330.750493  	59.347484 
3332.187400  	59.336153 
3333.624307  	59.401682 
3335.061214  	59.426065 
3336.498121  	59.392998 
3337.935028  	59.478521 
3339.371935  	59.460093 
3340.808842  	59.439628 
3342.245749  	59.472357 
3343.682656  	59.384789 
3345.119563  	59.428683 
3346.556470  	59.509612 
3347.993377  	59.487450 
3349.430284  	59.551918 
3350.867191  	59.537455 
3352.304098  	59.537732 
3353.741005  	59.672583 
3355.177912  	59.701326 
3356.614819  	59.735925 
3358.051726  	59.745154 
3359.488634  	59.684698 
3360.925541  	59.779253 
3362.362448  	59.848447 
3363.799355  	59.873842 
3365.236262  	59.946030 
3366.673169  	59.916964 
3368.110076  	59.958240 
3369.546983  	60.031579 
3370.983890  	60.047231 
3372.420797  	60.187914 
3373.857704  	60.280010 
3375.294611  	60.335246 
3376.731518  	60.435330 
3378.168425  	60.402933 
3379.605332  	60.459608 
3381.042239  	60.610015 
3382.479146  	60.671500 
3383.916053  	60.782595 
3385.352960  	60.848441 
3386.789867  	60.935333 
3388.226774  	61.096575 
3389.663681  	61.087375 
3391.100588  	61.132348 
3392.537495  	61.280957 
3393.974402  	61.365242 
3395.411309  	61.557128 
3396.848216  	61.691918 
3398.285123  	61.723265 
3399.722030  	61.815578 
3401.158937  	61.853870 
3402.595844  	61.990020 
3404.032751  	62.194221 
3405.469658  	62.310612 
3406.906565  	62.501678 
3408.343473  	62.577745 
3409.780380  	62.597203 
3411.217287  	62.806221 
3412.654194  	62.939827 
3414.091101  	63.094186 
3415.528008  	63.313044 
3416.964915  	63.366992 
3418.401822  	63.490602 
3419.838729  	63.645584 
3421.275636  	63.756285 
3422.712543  	63.991987 
3424.149450  	64.119167 
3425.586357  	64.227067 
3427.023264  	64.445314 
3428.460171  	64.555625 
3429.897078  	64.705840 
3431.333985  	64.890272 
3432.770892  	65.016988 
3434.207799  	65.231860 
3435.644706  	65.380346 
3437.081613  	65.496824 
3438.518520  	65.685118 
3439.955427  	65.812573 
3441.392334  	66.008415 
3442.829241  	66.216823 
3444.266148  	66.346343 
3445.703055  	66.529639 
3447.139962  	66.627599 
3448.576869  	66.748137 
3450.013776  	66.989583 
3451.450683  	67.133907 
3452.887590  	67.337960 
3454.324497  	67.570424 
3455.761404  	67.687859 
3457.198311  	67.867943 
3458.635219  	68.020150 
3460.072126  	68.148913 
3461.509033  	68.361711 
3462.945940  	68.507052 
3464.382847  	68.654318 
3465.819754  	68.796965 
3467.256661  	68.904343 
3468.693568  	69.124456 
3470.130475  	69.312525 
3471.567382  	69.495049 
3473.004289  	69.730722 
3474.441196  	69.843248 
3475.878103  	70.012935 
3477.315010  	70.255098 
3478.751917  	70.422474 
3480.188824  	70.616942 
3481.625731  	70.705641 
3483.062638  	70.796524 
3484.499545  	71.072052 
3485.936452  	71.243456 
3487.373359  	71.374833 
3488.810266  	71.559707 
3490.247173  	71.700266 
3491.684080  	71.923768 
3493.120987  	72.112937 
3494.557894  	72.261065 
3495.994801  	72.495636 
3497.431708  	72.596095 
3498.868615  	72.679848 
3500.305522  	72.895142 
3501.742429  	73.071564 
3503.179336  	73.276840 
3504.616243  	73.472719 
3506.053150  	73.614119 
3507.490058  	73.806733 
3508.926965  	73.969345 
3510.363872  	74.180249 
3511.800779  	74.396830 
3513.237686  	74.487526 
3514.674593  	74.676375 
3516.111500  	74.913294 
3517.548407  	75.072470 
3518.985314  	75.277331 
3520.422221  	75.459861 
3521.859128  	75.635423 
3523.296035  	75.816314 
3524.732942  	75.923480 
3526.169849  	76.120347 
3527.606756  	76.347624 
3529.043663  	76.533827 
3530.480570  	76.731295 
3531.917477  	76.819383 
3533.354384  	76.964118 
3534.791291  	77.229653 
3536.228198  	77.405752 
3537.665105  	77.576109 
3539.102012  	77.719788 
3540.538919  	77.814058 
3541.975826  	78.012275 
3543.412733  	78.195350 
3544.849640  	78.331916 
3546.286547  	78.486480 
3547.723454  	78.655486 
3549.160361  	78.871669 
3550.597268  	79.064324 
3552.034175  	79.214198 
3553.471082  	79.411766 
3554.907989  	79.571567 
3556.344896  	79.719200 
3557.781804  	79.923908 
3559.218711  	80.081603 
3560.655618  	80.256570 
3562.092525  	80.472098 
3563.529432  	80.640454 
3564.966339  	80.824192 
3566.403246  	80.956232 
3567.840153  	81.044915 
3569.277060  	81.227951 
3570.713967  	81.424702 
3572.150874  	81.620785 
3573.587781  	81.794386 
3575.024688  	81.938529 
3576.461595  	82.197268 
3577.898502  	82.337055 
3579.335409  	82.391054 
3580.772316  	82.617342 
3582.209223  	82.815296 
3583.646130  	82.983701 
3585.083037  	83.191714 
3586.519944  	83.256479 
3587.956851  	83.261070 
3589.393758  	83.389931 
3590.830665  	83.614130 
3592.267572  	83.862714 
3593.704479  	83.982081 
3595.141386  	84.074526 
3596.578293  	84.287759 
3598.015200  	84.469014 
3599.452107  	84.643923 
3600.889014  	84.794999 
3602.325921  	84.945108 
3603.762828  	85.181708 
3605.199735  	85.346640 
3606.636642  	85.462304 
3608.073550  	85.600016 
3609.510457  	85.692854 
3610.947364  	85.878508 
3612.384271  	86.034223 
3613.821178  	86.065614 
3615.258085  	86.258909 
3616.694992  	86.519897 
3618.131899  	86.695113 
3619.568806  	86.786024 
3621.005713  	86.836965 
3622.442620  	87.046892 
3623.879527  	87.259626 
3625.316434  	87.392085 
3626.753341  	87.638654 
3628.190248  	87.906481 
3629.627155  	87.854528 
3631.064062  	87.890032 
3632.500969  	88.205079 
3633.937876  	88.458519 
3635.374783  	88.573066 
3636.811690  	88.753566 
3638.248597  	89.014258 
3639.685504  	89.187487 
3641.122411  	89.355844 
3642.559318  	89.530851 
3643.996225  	89.678190 
3645.433132  	89.936281 
3646.870039  	90.155870 
3648.306946  	90.228068 
3649.743853  	90.431784 
3651.180760  	90.503032 
3652.617667  	90.661657 
3654.054574  	91.012009 
3655.491481  	91.232422 
3656.928389  	91.370695 
3658.365296  	91.585696 
3659.802203  	91.774575 
3661.239110  	91.965194 
3662.676017  	92.158044 
3664.112924  	92.369644 
3665.549831  	92.529936 
3666.986738  	92.675221 
3668.423645  	92.821256 
3669.860552  	92.976597 
3671.297459  	93.032370 
3672.734366  	93.149228 
3674.171273  	93.306144 
3675.608180  	93.348078 
3677.045087  	93.396563 
3678.481994  	93.678643 
3679.918901  	93.876945 
3681.355808  	93.953930 
3682.792715  	94.109423 
3684.229622  	94.255369 
3685.666529  	94.369682 
3687.103436  	94.576844 
3688.540343  	94.703308 
3689.977250  	94.660679 
3691.414157  	94.793758 
3692.851064  	94.839440 
3694.287971  	94.885527 
3695.724878  	95.035522 
3697.161785  	95.111038 
3698.598692  	95.200472 
3700.035599  	95.376638 
3701.472506  	95.422894 
3702.909413  	95.389576 
3704.346320  	95.467955 
3705.783227  	95.563533 
3707.220135  	95.662368 
3708.657042  	95.770410 
3710.093949  	95.813350 
3711.530856  	95.790910 
3712.967763  	95.662378 
3714.404670  	95.620963 
3715.841577  	95.744852 
3717.278484  	95.857772 
3718.715391  	95.857368 
3720.152298  	95.903346 
3721.589205  	96.023631 
3723.026112  	95.985400 
3724.463019  	95.889561 
3725.899926  	95.958742 
3727.336833  	95.968119 
3728.773740  	95.969488 
3730.210647  	96.128439 
3731.647554  	96.236460 
3733.084461  	96.220115 
3734.521368  	96.216647 
3735.958275  	96.121327 
3737.395182  	96.090681 
3738.832089  	96.243131 
3740.268996  	96.342018 
3741.705903  	96.389614 
3743.142810  	96.493334 
3744.579717  	96.487558 
3746.016624  	96.334237 
3747.453531  	96.487153 
3748.890438  	96.608845 
3750.327345  	96.616419 
3751.764252  	96.614249 
3753.201159  	96.623899 
3754.638066  	96.665246 
3756.074973  	96.757310 
3757.511881  	96.810077 
3758.948788  	96.837127 
3760.385695  	96.876256 
3761.822602  	96.878870 
3763.259509  	96.945351 
3764.696416  	97.001173 
3766.133323  	96.926329 
3767.570230  	96.929697 
3769.007137  	96.997435 
3770.444044  	96.970159 
3771.880951  	96.935508 
3773.317858  	96.966530 
3774.754765  	96.990039 
3776.191672  	97.025562 
3777.628579  	97.049258 
3779.065486  	97.041516 
3780.502393  	96.944699 
3781.939300  	96.915290 
3783.376207  	96.993127 
3784.813114  	97.024002 
3786.250021  	97.003858 
3787.686928  	97.037818 
3789.123835  	97.022141 
3790.560742  	96.992042 
3791.997649  	97.024828 
3793.434556  	97.094089 
3794.871463  	97.191018 
3796.308370  	97.172181 
3797.745277  	96.990410 
3799.182184  	97.047680 
3800.619091  	97.200699 
3802.055998  	97.089431 
3803.492905  	96.926517 
3804.929812  	97.093878 
3806.366720  	97.227252 
3807.803627  	97.069734 
3809.240534  	97.017512 
3810.677441  	97.144841 
3812.114348  	97.128592 
3813.551255  	97.168383 
3814.988162  	97.302076 
3816.425069  	97.104486 
3817.861976  	96.944191 
3819.298883  	97.147249 
3820.735790  	97.149562 
3822.172697  	96.875651 
3823.609604  	96.949378 
3825.046511  	97.132081 
3826.483418  	97.194400 
3827.920325  	97.136920 
3829.357232  	97.192129 
3830.794139  	97.243005 
3832.231046  	97.144840 
3833.667953  	97.148775 
3835.104860  	97.221816 
3836.541767  	97.210503 
3837.978674  	97.189986 
3839.415581  	97.062276 
3840.852488  	96.994142 
3842.289395  	97.103012 
3843.726302  	97.103579 
3845.163209  	97.009927 
3846.600116  	97.034075 
3848.037023  	97.130404 
3849.473930  	97.196486 
3850.910837  	97.251495 
3852.347744  	97.361433 
3853.784651  	97.194452 
3855.221558  	96.802809 
3856.658466  	96.949573 
3858.095373  	97.054201 
3859.532280  	97.134009 
3860.969187  	97.252927 
3862.406094  	97.221733 
3863.843001  	97.148733 
3865.279908  	97.076613 
3866.716815  	97.000237 
3868.153722  	97.227183 
3869.590629  	97.359077 
3871.027536  	97.006297 
3872.464443  	97.094881 
3873.901350  	97.260786 
3875.338257  	97.107960 
3876.775164  	97.140073 
3878.212071  	97.271461 
3879.648978  	97.255113 
3881.085885  	97.175915 
3882.522792  	97.160609 
3883.959699  	97.241267 
3885.396606  	97.244219 
3886.833513  	97.100220 
3888.270420  	97.151990 
3889.707327  	97.247394 
3891.144234  	97.225348 
3892.581141  	97.143703 
3894.018048  	97.135781 
3895.454955  	97.181689 
3896.891862  	97.227267 
3898.328769  	97.237301 
3899.765676  	97.208419 
3901.202583  	97.178956 
3902.639490  	97.184713 
3904.076397  	97.158959 
3905.513305  	97.077292 
3906.950212  	97.100020 
3908.387119  	97.158577 
3909.824026  	97.170441 
3911.260933  	97.202590 
3912.697840  	97.215181 
3914.134747  	97.203414 
3915.571654  	97.213844 
3917.008561  	97.159850 
3918.445468  	97.128875 
3919.882375  	97.165994 
3921.319282  	97.168873 
3922.756189  	97.198726 
3924.193096  	97.225393 
3925.630003  	97.160687 
3927.066910  	97.134567 
3928.503817  	97.172346 
3929.940724  	97.161797 
3931.377631  	97.152722 
3932.814538  	97.148994 
3934.251445  	97.140138 
3935.688352  	97.160920 
3937.125259  	97.178401 
3938.562166  	97.148506 
3939.999073  	97.139701 
3941.435980  	97.201227 
3942.872887  	97.179264 
3944.309794  	97.064774 
3945.746701  	97.117790 
3947.183608  	97.195680 
3948.620515  	97.118238 
3950.057422  	97.114667 
3951.494329  	97.207823 
3952.931236  	97.196616 
3954.368143  	97.188901 
3955.805051  	97.212221 
3957.241958  	97.145083 
3958.678865  	97.096647 
3960.115772  	97.161266 
3961.552679  	97.192374 
3962.989586  	97.142397 
3964.426493  	97.126183 
3965.863400  	97.129712 
3967.300307  	97.126084 
3968.737214  	97.157185 
3970.174121  	97.170088 
3971.611028  	97.172353 
3973.047935  	97.213158 
3974.484842  	97.205021 
3975.921749  	97.163935 
3977.358656  	97.169906 
3978.795563  	97.183275 
3980.232470  	97.209689 
3981.669377  	97.228661 
3983.106284  	97.187978 
3984.543191  	97.155465 
3985.980098  	97.159535 
3987.417005  	97.165341 
3988.853912  	97.170574 
3990.290819  	97.176326 
3991.727726  	97.190970 
3993.164633  	97.200309 
3994.601540  	97.215812 
3996.038447  	97.240583 
3997.475354  	97.213129 
3998.912261  	97.199958 
4000.349168  	97.246187 