##TITLE=No Description
##DATA TYPE=INFRARED SPECTRUM
##XUNITS=1/CM
##YUNITS=%T
399.460154  	96.431357 
400.897061  	95.811121 
402.333968  	93.563555 
403.770875  	93.566816 
405.207782  	93.716569 
406.644689  	94.954067 
408.081596  	95.100388 
409.518503  	94.448617 
410.955410  	95.134739 
412.392317  	94.422729 
413.829224  	94.527635 
415.266131  	95.704475 
416.703038  	94.324559 
418.139945  	93.610655 
419.576852  	94.604968 
421.013759  	93.314034 
422.450666  	93.554275 
423.887574  	93.835170 
425.324481  	93.833214 
426.761388  	94.708214 
428.198295  	94.748110 
429.635202  	94.651478 
431.072109  	94.833319 
432.509016  	94.799993 
433.945923  	95.169562 
435.382830  	94.962884 
436.819737  	94.487210 
438.256644  	94.519358 
439.693551  	94.590598 
441.130458  	95.286063 
442.567365  	95.009117 
444.004272  	94.026378 
445.441179  	94.666179 
446.878086  	94.808620 
448.314993  	94.735989 
449.751900  	95.289040 
451.188807  	94.912808 
452.625714  	94.719872 
454.062621  	94.696344 
455.499528  	94.319804 
456.936435  	94.943858 
458.373342  	94.693568 
459.810249  	94.030802 
461.247156  	94.621074 
462.684063  	94.440544 
464.120970  	94.356970 
465.557877  	95.033905 
466.994784  	94.790364 
468.431691  	94.346084 
469.868598  	94.251990 
471.305505  	94.519750 
472.742413  	95.307920 
474.179320  	95.159477 
475.616227  	95.072024 
477.053134  	95.332673 
478.490041  	94.946997 
479.926948  	94.872535 
481.363855  	94.845776 
482.800762  	94.444302 
484.237669  	94.408894 
485.674576  	94.251265 
487.111483  	94.310788 
488.548390  	94.692519 
489.985297  	94.512416 
491.422204  	94.483413 
492.859111  	94.838720 
494.296018  	94.951529 
495.732925  	95.127236 
497.169832  	95.251615 
498.606739  	95.214003 
500.043646  	95.105066 
501.480553  	94.790084 
502.917460  	94.688206 
504.354367  	94.805146 
505.791274  	95.051852 
507.228181  	95.418967 
508.665088  	95.383768 
510.101995  	95.347331 
511.538902  	95.347595 
512.975809  	95.018512 
514.412716  	94.948335 
515.849623  	94.984359 
517.286530  	94.883904 
518.723437  	94.969723 
520.160344  	94.896002 
521.597251  	95.041600 
523.034159  	95.395590 
524.471066  	95.192160 
525.907973  	95.003804 
527.344880  	95.107684 
528.781787  	94.874478 
530.218694  	94.690858 
531.655601  	94.803641 
533.092508  	95.082572 
534.529415  	95.252399 
535.966322  	94.978986 
537.403229  	94.783390 
538.840136  	94.877620 
540.277043  	94.876338 
541.713950  	94.991407 
543.150857  	95.225348 
544.587764  	95.312531 
546.024671  	95.268689 
547.461578  	95.179109 
548.898485  	95.190408 
550.335392  	95.211637 
551.772299  	95.193848 
553.209206  	95.206536 
554.646113  	95.102322 
556.083020  	95.061469 
557.519927  	95.114823 
558.956834  	95.059153 
560.393741  	95.123510 
561.830648  	95.170710 
563.267555  	95.083057 
564.704462  	95.129108 
566.141369  	95.067946 
567.578276  	94.982699 
569.015183  	95.105199 
570.452090  	95.077129 
571.888997  	95.054678 
573.325905  	95.147616 
574.762812  	95.066869 
576.199719  	95.052156 
577.636626  	95.205215 
579.073533  	95.284225 
580.510440  	95.247840 
581.947347  	95.112367 
583.384254  	95.079961 
584.821161  	95.112950 
586.258068  	95.050286 
587.694975  	95.048970 
589.131882  	95.065602 
590.568789  	95.058693 
592.005696  	95.156456 
593.442603  	95.249608 
594.879510  	95.266564 
596.316417  	95.181598 
597.753324  	95.104268 
599.190231  	95.177212 
600.627138  	95.142873 
602.064045  	95.120490 
603.500952  	95.280062 
604.937859  	95.177460 
606.374766  	95.057858 
607.811673  	95.095133 
609.248580  	95.145385 
610.685487  	95.187603 
612.122394  	95.185274 
613.559301  	95.182083 
614.996208  	95.187947 
616.433115  	95.069245 
617.870022  	95.010473 
619.306929  	95.154410 
620.743836  	95.200716 
622.180744  	95.169233 
623.617651  	95.146873 
625.054558  	95.110722 
626.491465  	95.178707 
627.928372  	95.230408 
629.365279  	95.222193 
630.802186  	95.243350 
632.239093  	95.231656 
633.676000  	95.247318 
635.112907  	95.250666 
636.549814  	95.225235 
637.986721  	95.291759 
639.423628  	95.339116 
640.860535  	95.326371 
642.297442  	95.349203 
643.734349  	95.355229 
645.171256  	95.360043 
646.608163  	95.411263 
648.045070  	95.431244 
649.481977  	95.466838 
650.918884  	95.524129 
652.355791  	95.545924 
653.792698  	95.537394 
655.229605  	95.506361 
656.666512  	95.504403 
658.103419  	95.468790 
659.540326  	95.381862 
660.977233  	95.410233 
662.414140  	95.492173 
663.851047  	95.478221 
665.287954  	95.462433 
666.724861  	95.476660 
668.161768  	95.507449 
669.598675  	95.521928 
671.035582  	95.543450 
672.472490  	95.575418 
673.909397  	95.536680 
675.346304  	95.498129 
676.783211  	95.534833 
678.220118  	95.576818 
679.657025  	95.602652 
681.093932  	95.628280 
682.530839  	95.613436 
683.967746  	95.639426 
685.404653  	95.668811 
686.841560  	95.674429 
688.278467  	95.683807 
689.715374  	95.697298 
691.152281  	95.694626 
692.589188  	95.689705 
694.026095  	95.673230 
695.463002  	95.678487 
696.899909  	95.698793 
698.336816  	95.682330 
699.773723  	95.656719 
701.210630  	95.648073 
702.647537  	95.656998 
704.084444  	95.713601 
705.521351  	95.753165 
706.958258  	95.784402 
708.395165  	95.809973 
709.832072  	95.800822 
711.268979  	95.837153 
712.705886  	95.878311 
714.142793  	95.897248 
715.579700  	95.931520 
717.016607  	95.932960 
718.453514  	95.924668 
719.890421  	95.979061 
721.327328  	96.025133 
722.764236  	96.048091 
724.201143  	96.023471 
725.638050  	95.998928 
727.074957  	96.057875 
728.511864  	96.069681 
729.948771  	96.018002 
731.385678  	95.999381 
732.822585  	95.993331 
734.259492  	96.004478 
735.696399  	96.012910 
737.133306  	95.976788 
738.570213  	95.968816 
740.007120  	95.997833 
741.444027  	96.020154 
742.880934  	96.058482 
744.317841  	96.104386 
745.754748  	96.136299 
747.191655  	96.143148 
748.628562  	96.104805 
750.065469  	96.051778 
751.502376  	96.054111 
752.939283  	96.125764 
754.376190  	96.182814 
755.813097  	96.176563 
757.250004  	96.171997 
758.686911  	96.208438 
760.123818  	96.256945 
761.560725  	96.275473 
762.997632  	96.267248 
764.434539  	96.276483 
765.871446  	96.283913 
767.308353  	96.294793 
768.745260  	96.333632 
770.182167  	96.311431 
771.619075  	96.255875 
773.055982  	96.291335 
774.492889  	96.359199 
775.929796  	96.386346 
777.366703  	96.403577 
778.803610  	96.435856 
780.240517  	96.464595 
781.677424  	96.431420 
783.114331  	96.403256 
784.551238  	96.472642 
785.988145  	96.518981 
787.425052  	96.481198 
788.861959  	96.479215 
790.298866  	96.531071 
791.735773  	96.550220 
793.172680  	96.522991 
794.609587  	96.504399 
796.046494  	96.500999 
797.483401  	96.512625 
798.920308  	96.569615 
800.357215  	96.591635 
801.794122  	96.542620 
803.231029  	96.534994 
804.667936  	96.569672 
806.104843  	96.595169 
807.541750  	96.629546 
808.978657  	96.656083 
810.415564  	96.661028 
811.852471  	96.655857 
813.289378  	96.665121 
814.726285  	96.694251 
816.163192  	96.710603 
817.600099  	96.749541 
819.037006  	96.790478 
820.473913  	96.761762 
821.910821  	96.743931 
823.347728  	96.778102 
824.784635  	96.835459 
826.221542  	96.898552 
827.658449  	96.900526 
829.095356  	96.916391 
830.532263  	96.966637 
831.969170  	96.910501 
833.406077  	96.880553 
834.842984  	96.955763 
836.279891  	96.961796 
837.716798  	96.933564 
839.153705  	96.942073 
840.590612  	96.968274 
842.027519  	96.995501 
843.464426  	96.940176 
844.901333  	96.891856 
846.338240  	96.936728 
847.775147  	96.963847 
849.212054  	96.993034 
850.648961  	97.023925 
852.085868  	97.010137 
853.522775  	97.019060 
854.959682  	97.013329 
856.396589  	97.027733 
857.833496  	97.121958 
859.270403  	97.163743 
860.707310  	97.183368 
862.144217  	97.220385 
863.581124  	97.180004 
865.018031  	97.158558 
866.454938  	97.192504 
867.891845  	97.206296 
869.328752  	97.214292 
870.765660  	97.198792 
872.202567  	97.210263 
873.639474  	97.252545 
875.076381  	97.224288 
876.513288  	97.203685 
877.950195  	97.222006 
879.387102  	97.209487 
880.824009  	97.210430 
882.260916  	97.215856 
883.697823  	97.215261 
885.134730  	97.239608 
886.571637  	97.267192 
888.008544  	97.310966 
889.445451  	97.343340 
890.882358  	97.349543 
892.319265  	97.364045 
893.756172  	97.343664 
895.193079  	97.334230 
896.629986  	97.363262 
898.066893  	97.353324 
899.503800  	97.370164 
900.940707  	97.410632 
902.377614  	97.404238 
903.814521  	97.424812 
905.251428  	97.453589 
906.688335  	97.455958 
908.125242  	97.458068 
909.562149  	97.434271 
910.999056  	97.436359 
912.435963  	97.449003 
913.872870  	97.423075 
915.309777  	97.423325 
916.746684  	97.402109 
918.183591  	97.379536 
919.620498  	97.437754 
921.057406  	97.472229 
922.494313  	97.498559 
923.931220  	97.524574 
925.368127  	97.456964 
926.805034  	97.444599 
928.241941  	97.516710 
929.678848  	97.539448 
931.115755  	97.556170 
932.552662  	97.555437 
933.989569  	97.553471 
935.426476  	97.594591 
936.863383  	97.569592 
938.300290  	97.537300 
939.737197  	97.570173 
941.174104  	97.569479 
942.611011  	97.561354 
944.047918  	97.561012 
945.484825  	97.556594 
946.921732  	97.594251 
948.358639  	97.603186 
949.795546  	97.568785 
951.232453  	97.541060 
952.669360  	97.515844 
954.106267  	97.555829 
955.543174  	97.618803 
956.980081  	97.601463 
958.416988  	97.569877 
959.853895  	97.582430 
961.290802  	97.625596 
962.727709  	97.652189 
964.164616  	97.643438 
965.601523  	97.663264 
967.038430  	97.673428 
968.475337  	97.668556 
969.912244  	97.723923 
971.349152  	97.738762 
972.786059  	97.709428 
974.222966  	97.739723 
975.659873  	97.750747 
977.096780  	97.739058 
978.533687  	97.750994 
979.970594  	97.750106 
981.407501  	97.769149 
982.844408  	97.769871 
984.281315  	97.735819 
985.718222  	97.769805 
987.155129  	97.822432 
988.592036  	97.830912 
990.028943  	97.825849 
991.465850  	97.804971 
992.902757  	97.820639 
994.339664  	97.857258 
995.776571  	97.836529 
997.213478  	97.834470 
998.650385  	97.887012 
1000.087292  	97.914347 
1001.524199  	97.897087 
1002.961106  	97.871335 
1004.398013  	97.884572 
1005.834920  	97.916468 
1007.271827  	97.916156 
1008.708734  	97.920672 
1010.145641  	97.942985 
1011.582548  	97.952218 
1013.019455  	97.957506 
1014.456362  	97.955908 
1015.893269  	97.943569 
1017.330176  	97.934531 
1018.767083  	97.935292 
1020.203991  	97.946626 
1021.640898  	97.958435 
1023.077805  	97.987391 
1024.514712  	98.034043 
1025.951619  	98.042410 
1027.388526  	98.020085 
1028.825433  	98.009934 
1030.262340  	98.003345 
1031.699247  	98.002442 
1033.136154  	98.004150 
1034.573061  	97.994887 
1036.009968  	98.002037 
1037.446875  	98.023742 
1038.883782  	98.019795 
1040.320689  	98.002671 
1041.757596  	98.011226 
1043.194503  	98.032907 
1044.631410  	98.034814 
1046.068317  	98.018326 
1047.505224  	97.997188 
1048.942131  	97.985504 
1050.379038  	97.982476 
1051.815945  	97.962906 
1053.252852  	97.942043 
1054.689759  	97.953328 
1056.126666  	97.982394 
1057.563573  	98.009819 
1059.000480  	98.025372 
1060.437387  	98.032631 
1061.874294  	98.052160 
1063.311201  	98.063152 
1064.748108  	98.050436 
1066.185015  	98.046608 
1067.621922  	98.062874 
1069.058829  	98.072398 
1070.495737  	98.050394 
1071.932644  	98.036403 
1073.369551  	98.070803 
1074.806458  	98.092564 
1076.243365  	98.069907 
1077.680272  	98.037612 
1079.117179  	98.013021 
1080.554086  	98.029093 
1081.990993  	98.049545 
1083.427900  	98.017901 
1084.864807  	98.002037 
1086.301714  	98.015553 
1087.738621  	98.009748 
1089.175528  	98.004756 
1090.612435  	97.992266 
1092.049342  	97.982616 
1093.486249  	97.997206 
1094.923156  	97.985386 
1096.360063  	97.978843 
1097.796970  	98.013431 
1099.233877  	98.009182 
1100.670784  	97.974957 
1102.107691  	97.976237 
1103.544598  	97.990261 
1104.981505  	98.001923 
1106.418412  	98.023137 
1107.855319  	98.033158 
1109.292226  	98.017878 
1110.729133  	98.007957 
1112.166040  	98.010548 
1113.602947  	97.995758 
1115.039854  	97.988778 
1116.476761  	97.993319 
1117.913668  	97.965917 
1119.350575  	97.952555 
1120.787483  	97.970186 
1122.224390  	97.964166 
1123.661297  	97.964649 
1125.098204  	97.980020 
1126.535111  	97.978894 
1127.972018  	97.992235 
1129.408925  	97.996077 
1130.845832  	97.958932 
1132.282739  	97.932346 
1133.719646  	97.931628 
1135.156553  	97.942428 
1136.593460  	97.962051 
1138.030367  	97.976360 
1139.467274  	97.982483 
1140.904181  	97.974133 
1142.341088  	97.966682 
1143.777995  	97.982952 
1145.214902  	97.989032 
1146.651809  	97.972932 
1148.088716  	97.956256 
1149.525623  	97.938803 
1150.962530  	97.936515 
1152.399437  	97.949557 
1153.836344  	97.954929 
1155.273251  	97.950091 
1156.710158  	97.931436 
1158.147065  	97.928908 
1159.583972  	97.959224 
1161.020879  	97.961280 
1162.457786  	97.932797 
1163.894693  	97.925763 
1165.331600  	97.928699 
1166.768507  	97.931409 
1168.205414  	97.938985 
1169.642322  	97.934956 
1171.079229  	97.926800 
1172.516136  	97.932392 
1173.953043  	97.945569 
1175.389950  	97.944601 
1176.826857  	97.928840 
1178.263764  	97.928518 
1179.700671  	97.935699 
1181.137578  	97.932667 
1182.574485  	97.943171 
1184.011392  	97.949078 
1185.448299  	97.930195 
1186.885206  	97.924407 
1188.322113  	97.927628 
1189.759020  	97.919010 
1191.195927  	97.914993 
1192.632834  	97.906986 
1194.069741  	97.895977 
1195.506648  	97.897137 
1196.943555  	97.891372 
1198.380462  	97.885811 
1199.817369  	97.900482 
1201.254276  	97.916375 
1202.691183  	97.923837 
1204.128090  	97.924298 
1205.564997  	97.914011 
1207.001904  	97.905731 
1208.438811  	97.909029 
1209.875718  	97.909818 
1211.312625  	97.893740 
1212.749532  	97.887155 
1214.186439  	97.916846 
1215.623346  	97.937659 
1217.060253  	97.921414 
1218.497160  	97.912181 
1219.934068  	97.925030 
1221.370975  	97.933704 
1222.807882  	97.924006 
1224.244789  	97.906533 
1225.681696  	97.904883 
1227.118603  	97.907578 
1228.555510  	97.906007 
1229.992417  	97.917970 
1231.429324  	97.923175 
1232.866231  	97.919700 
1234.303138  	97.925159 
1235.740045  	97.918531 
1237.176952  	97.916080 
1238.613859  	97.915214 
1240.050766  	97.883723 
1241.487673  	97.885695 
1242.924580  	97.921273 
1244.361487  	97.911346 
1245.798394  	97.905161 
1247.235301  	97.923065 
1248.672208  	97.905958 
1250.109115  	97.892767 
1251.546022  	97.902935 
1252.982929  	97.895260 
1254.419836  	97.882691 
1255.856743  	97.879600 
1257.293650  	97.880978 
1258.730557  	97.878169 
1260.167464  	97.864626 
1261.604371  	97.869082 
1263.041278  	97.890285 
1264.478185  	97.891706 
1265.915092  	97.878715 
1267.351999  	97.875703 
1268.788907  	97.882500 
1270.225814  	97.875378 
1271.662721  	97.862475 
1273.099628  	97.876470 
1274.536535  	97.880131 
1275.973442  	97.854371 
1277.410349  	97.850706 
1278.847256  	97.861568 
1280.284163  	97.860774 
1281.721070  	97.861559 
1283.157977  	97.857422 
1284.594884  	97.860062 
1286.031791  	97.874948 
1287.468698  	97.871025 
1288.905605  	97.863254 
1290.342512  	97.870454 
1291.779419  	97.873515 
1293.216326  	97.872211 
1294.653233  	97.868397 
1296.090140  	97.861679 
1297.527047  	97.858010 
1298.963954  	97.856058 
1300.400861  	97.861836 
1301.837768  	97.869151 
1303.274675  	97.868107 
1304.711582  	97.873756 
1306.148489  	97.876193 
1307.585396  	97.864956 
1309.022303  	97.865022 
1310.459210  	97.863916 
1311.896117  	97.868520 
1313.333024  	97.871156 
1314.769931  	97.871061 
1316.206838  	97.872175 
1317.643745  	97.874391 
1319.080653  	97.873326 
1320.517560  	97.871100 
1321.954467  	97.869859 
1323.391374  	97.880498 
1324.828281  	97.889022 
1326.265188  	97.882568 
1327.702095  	97.881286 
1329.139002  	97.875092 
1330.575909  	97.862891 
1332.012816  	97.855975 
1333.449723  	97.846938 
1334.886630  	97.843619 
1336.323537  	97.847989 
1337.760444  	97.847345 
1339.197351  	97.841801 
1340.634258  	97.840832 
1342.071165  	97.835062 
1343.508072  	97.845120 
1344.944979  	97.847281 
1346.381886  	97.842874 
1347.818793  	97.849713 
1349.255700  	97.853988 
1350.692607  	97.845604 
1352.129514  	97.841847 
1353.566421  	97.834390 
1355.003328  	97.836383 
1356.440235  	97.818998 
1357.877142  	97.821143 
1359.314049  	97.836602 
1360.750956  	97.847320 
1362.187863  	97.844629 
1363.624770  	97.807020 
1365.061677  	97.788595 
1366.498584  	97.805328 
1367.935491  	97.800661 
1369.372399  	97.779804 
1370.809306  	97.800616 
1372.246213  	97.827126 
1373.683120  	97.813632 
1375.120027  	97.779583 
1376.556934  	97.772296 
1377.993841  	97.767728 
1379.430748  	97.761049 
1380.867655  	97.769328 
1382.304562  	97.771070 
1383.741469  	97.764906 
1385.178376  	97.778286 
1386.615283  	97.773794 
1388.052190  	97.746363 
1389.489097  	97.748576 
1390.926004  	97.758848 
1392.362911  	97.764271 
1393.799818  	97.770406 
1395.236725  	97.735961 
1396.673632  	97.732301 
1398.110539  	97.764380 
1399.547446  	97.757818 
1400.984353  	97.754264 
1402.421260  	97.769960 
1403.858167  	97.797333 
1405.295074  	97.774280 
1406.731981  	97.732230 
1408.168888  	97.748501 
1409.605795  	97.795955 
1411.042702  	97.806968 
1412.479609  	97.797438 
1413.916516  	97.788940 
1415.353423  	97.790966 
1416.790330  	97.847339 
1418.227238  	97.893828 
1419.664145  	97.814367 
1421.101052  	97.798732 
1422.537959  	97.835328 
1423.974866  	97.801033 
1425.411773  	97.741162 
1426.848680  	97.780292 
1428.285587  	97.817416 
1429.722494  	97.818670 
1431.159401  	97.797579 
1432.596308  	97.790967 
1434.033215  	97.824633 
1435.470122  	97.869266 
1436.907029  	97.844186 
1438.343936  	97.791465 
1439.780843  	97.807437 
1441.217750  	97.838391 
1442.654657  	97.840823 
1444.091564  	97.840747 
1445.528471  	97.857388 
1446.965378  	97.859191 
1448.402285  	97.819061 
1449.839192  	97.809433 
1451.276099  	97.839875 
1452.713006  	97.858692 
1454.149913  	97.867703 
1455.586820  	97.902136 
1457.023727  	97.877953 
1458.460634  	97.793305 
1459.897541  	97.773269 
1461.334448  	97.798235 
1462.771355  	97.841836 
1464.208262  	97.835647 
1465.645169  	97.789761 
1467.082076  	97.773752 
1468.518984  	97.776347 
1469.955891  	97.819465 
1471.392798  	97.846370 
1472.829705  	97.742466 
1474.266612  	97.725959 
1475.703519  	97.759149 
1477.140426  	97.733483 
1478.577333  	97.728540 
1480.014240  	97.753685 
1481.451147  	97.760859 
1482.888054  	97.759753 
1484.324961  	97.766081 
1485.761868  	97.771980 
1487.198775  	97.775881 
1488.635682  	97.778172 
1490.072589  	97.756320 
1491.509496  	97.716383 
1492.946403  	97.720308 
1494.383310  	97.768885 
1495.820217  	97.791723 
1497.257124  	97.768915 
1498.694031  	97.748962 
1500.130938  	97.721304 
1501.567845  	97.707783 
1503.004752  	97.726504 
1504.441659  	97.778491 
1505.878566  	97.853998 
1507.315473  	97.671336 
1508.752380  	97.573009 
1510.189287  	97.631982 
1511.626194  	97.645625 
1513.063101  	97.652816 
1514.500008  	97.691596 
1515.936915  	97.663870 
1517.373822  	97.587467 
1518.810730  	97.646014 
1520.247637  	97.720838 
1521.684544  	97.657634 
1523.121451  	97.582644 
1524.558358  	97.606080 
1525.995265  	97.619152 
1527.432172  	97.599647 
1528.869079  	97.600550 
1530.305986  	97.605504 
1531.742893  	97.611884 
1533.179800  	97.589059 
1534.616707  	97.540455 
1536.053614  	97.560705 
1537.490521  	97.630880 
1538.927428  	97.701451 
1540.364335  	97.645572 
1541.801242  	97.546826 
1543.238149  	97.535543 
1544.675056  	97.512270 
1546.111963  	97.468557 
1547.548870  	97.479195 
1548.985777  	97.522471 
1550.422684  	97.483421 
1551.859591  	97.465619 
1553.296498  	97.495705 
1554.733405  	97.476696 
1556.170312  	97.460376 
1557.607219  	97.514909 
1559.044126  	97.420783 
1560.481033  	97.280077 
1561.917940  	97.355079 
1563.354847  	97.398250 
1564.791754  	97.372573 
1566.228661  	97.319808 
1567.665569  	97.388546 
1569.102476  	97.427735 
1570.539383  	97.291347 
1571.976290  	97.276018 
1573.413197  	97.343165 
1574.850104  	97.363854 
1576.287011  	97.315726 
1577.723918  	97.248391 
1579.160825  	97.276932 
1580.597732  	97.309724 
1582.034639  	97.291752 
1583.471546  	97.272000 
1584.908453  	97.257634 
1586.345360  	97.246058 
1587.782267  	97.247584 
1589.219174  	97.233803 
1590.656081  	97.219772 
1592.092988  	97.222972 
1593.529895  	97.205655 
1594.966802  	97.173182 
1596.403709  	97.164369 
1597.840616  	97.166970 
1599.277523  	97.173028 
1600.714430  	97.156786 
1602.151337  	97.119842 
1603.588244  	97.094238 
1605.025151  	97.066874 
1606.462058  	97.054356 
1607.898965  	97.039947 
1609.335872  	96.997833 
1610.772779  	96.967901 
1612.209686  	96.938529 
1613.646593  	96.924775 
1615.083500  	96.950151 
1616.520407  	96.938919 
1617.957315  	96.825643 
1619.394222  	96.781682 
1620.831129  	96.781198 
1622.268036  	96.778560 
1623.704943  	96.716016 
1625.141850  	96.688562 
1626.578757  	96.696856 
1628.015664  	96.670279 
1629.452571  	96.613845 
1630.889478  	96.604490 
1632.326385  	96.634524 
1633.763292  	96.705789 
1635.200199  	96.727425 
1636.637106  	96.509888 
1638.074013  	96.514360 
1639.510920  	96.585292 
1640.947827  	96.564727 
1642.384734  	96.537313 
1643.821641  	96.596230 
1645.258548  	96.697059 
1646.695455  	96.685184 
1648.132362  	96.554611 
1649.569269  	96.636378 
1651.006176  	96.773927 
1652.443083  	96.833219 
1653.879990  	96.579033 
1655.316897  	96.679238 
1656.753804  	96.754045 
1658.190711  	96.786730 
1659.627618  	96.810202 
1661.064525  	96.847189 
1662.501432  	96.873978 
1663.938339  	96.858957 
1665.375246  	96.899888 
1666.812154  	96.951642 
1668.249061  	96.993035 
1669.685968  	97.047878 
1671.122875  	97.020128 
1672.559782  	97.028966 
1673.996689  	97.114148 
1675.433596  	97.142442 
1676.870503  	97.138511 
1678.307410  	97.202855 
1679.744317  	97.242815 
1681.181224  	97.260868 
1682.618131  	97.334684 
1684.055038  	97.397250 
1685.491945  	97.337903 
1686.928852  	97.346230 
1688.365759  	97.355914 
1689.802666  	97.376554 
1691.239573  	97.395757 
1692.676480  	97.443132 
1694.113387  	97.546452 
1695.550294  	97.561910 
1696.987201  	97.444076 
1698.424108  	97.549225 
1699.861015  	97.678393 
1701.297922  	97.509910 
1702.734829  	97.514450 
1704.171736  	97.616968 
1705.608643  	97.633897 
1707.045550  	97.577387 
1708.482457  	97.602443 
1709.919364  	97.637273 
1711.356271  	97.674720 
1712.793178  	97.739730 
1714.230085  	97.758460 
1715.666992  	97.752283 
1717.103900  	97.772075 
1718.540807  	97.704261 
1719.977714  	97.713010 
1721.414621  	97.795507 
1722.851528  	97.844591 
1724.288435  	97.827740 
1725.725342  	97.835069 
1727.162249  	97.891132 
1728.599156  	97.908803 
1730.036063  	97.870769 
1731.472970  	97.882183 
1732.909877  	97.964058 
1734.346784  	97.942322 
1735.783691  	97.862713 
1737.220598  	97.908751 
1738.657505  	97.942750 
1740.094412  	97.892882 
1741.531319  	97.915776 
1742.968226  	97.954795 
1744.405133  	97.917457 
1745.842040  	97.923705 
1747.278947  	97.953604 
1748.715854  	97.953742 
1750.152761  	97.962193 
1751.589668  	97.948272 
1753.026575  	97.913122 
1754.463482  	97.955024 
1755.900389  	98.034650 
1757.337296  	97.982174 
1758.774203  	97.944266 
1760.211110  	97.999088 
1761.648017  	98.024271 
1763.084924  	97.952906 
1764.521831  	97.947994 
1765.958738  	98.023896 
1767.395646  	98.028919 
1768.832553  	97.992560 
1770.269460  	98.022224 
1771.706367  	98.071526 
1773.143274  	98.031742 
1774.580181  	98.010273 
1776.017088  	97.998265 
1777.453995  	97.995914 
1778.890902  	98.019920 
1780.327809  	98.021640 
1781.764716  	98.000684 
1783.201623  	98.011042 
1784.638530  	98.023435 
1786.075437  	98.010597 
1787.512344  	98.004899 
1788.949251  	98.022032 
1790.386158  	98.049438 
1791.823065  	98.028058 
1793.259972  	97.989011 
1794.696879  	98.000963 
1796.133786  	98.020199 
1797.570693  	98.030383 
1799.007600  	98.044724 
1800.444507  	98.052787 
1801.881414  	98.034385 
1803.318321  	98.026906 
1804.755228  	98.040829 
1806.192135  	98.046652 
1807.629042  	98.065880 
1809.065949  	98.093344 
1810.502856  	98.112616 
1811.939763  	98.088368 
1813.376670  	98.085653 
1814.813577  	98.136222 
1816.250485  	98.153130 
1817.687392  	98.127918 
1819.124299  	98.107432 
1820.561206  	98.097753 
1821.998113  	98.113752 
1823.435020  	98.155317 
1824.871927  	98.149599 
1826.308834  	98.107179 
1827.745741  	98.122098 
1829.182648  	98.155400 
1830.619555  	98.107663 
1832.056462  	98.077671 
1833.493369  	98.091818 
1834.930276  	98.102960 
1836.367183  	98.103648 
1837.804090  	98.119345 
1839.240997  	98.136413 
1840.677904  	98.136469 
1842.114811  	98.149863 
1843.551718  	98.134011 
1844.988625  	98.058113 
1846.425532  	98.078136 
1847.862439  	98.147714 
1849.299346  	98.151125 
1850.736253  	98.142868 
1852.173160  	98.146633 
1853.610067  	98.133480 
1855.046974  	98.122412 
1856.483881  	98.146422 
1857.920788  	98.137374 
1859.357695  	98.080167 
1860.794602  	98.050709 
1862.231509  	98.080995 
1863.668416  	98.110770 
1865.105323  	98.123357 
1866.542231  	98.146317 
1867.979138  	98.158093 
1869.416045  	98.146854 
1870.852952  	98.153512 
1872.289859  	98.145603 
1873.726766  	98.138244 
1875.163673  	98.110957 
1876.600580  	98.077226 
1878.037487  	98.082769 
1879.474394  	98.143614 
1880.911301  	98.161608 
1882.348208  	98.118163 
1883.785115  	98.085129 
1885.222022  	98.110685 
1886.658929  	98.181184 
1888.095836  	98.200917 
1889.532743  	98.186312 
1890.969650  	98.181008 
1892.406557  	98.203009 
1893.843464  	98.215208 
1895.280371  	98.216398 
1896.717278  	98.234493 
1898.154185  	98.240509 
1899.591092  	98.216785 
1901.027999  	98.194054 
1902.464906  	98.184386 
1903.901813  	98.168334 
1905.338720  	98.131815 
1906.775627  	98.106404 
1908.212534  	98.110728 
1909.649441  	98.084070 
1911.086348  	98.040858 
1912.523255  	98.015234 
1913.960162  	98.025731 
1915.397069  	98.078546 
1916.833977  	98.147114 
1918.270884  	98.149740 
1919.707791  	98.143174 
1921.144698  	98.226448 
1922.581605  	98.270080 
1924.018512  	98.240908 
1925.455419  	98.269105 
1926.892326  	98.404612 
1928.329233  	98.446835 
1929.766140  	98.400559 
1931.203047  	98.384864 
1932.639954  	98.393374 
1934.076861  	98.351027 
1935.513768  	98.299833 
1936.950675  	98.371511 
1938.387582  	98.464252 
1939.824489  	98.428370 
1941.261396  	98.330649 
1942.698303  	98.264541 
1944.135210  	98.225806 
1945.572117  	98.163776 
1947.009024  	98.134490 
1948.445931  	98.085838 
1949.882838  	98.066297 
1951.319745  	97.967322 
1952.756652  	98.456314 
1954.193559  	98.416954 
1955.630466  	98.307491 
1957.067373  	98.256832 
1958.504280  	98.264212 
1959.941187  	98.315959 
1961.378094  	98.380418 
1962.815001  	98.476792 
1964.251908  	98.474526 
1965.688816  	98.281261 
1967.125723  	98.157983 
1968.562630  	98.248176 
1969.999537  	98.327202 
1971.436444  	98.393209 
1972.873351  	98.466663 
1974.310258  	98.463740 
1975.747165  	98.520464 
1977.184072  	98.469323 
1978.620979  	98.095257 
1980.057886  	97.798700 
1981.494793  	97.745619 
1982.931700  	97.824639 
1984.368607  	98.025389 
1985.805514  	98.184970 
1987.242421  	98.041007 
1988.679328  	97.799495 
1990.116235  	97.957684 
1991.553142  	98.296386 
1992.990049  	98.223131 
1994.426956  	97.974626 
1995.863863  	97.917143 
1997.300770  	97.918861 
1998.737677  	98.040034 
2000.174584  	98.196880 
2001.611491  	98.200819 
2003.048398  	98.249510 
2004.485305  	98.371238 
2005.922212  	98.268385 
2007.359119  	98.117564 
2008.796026  	98.216575 
2010.232933  	98.342816 
2011.669840  	98.403893 
2013.106747  	98.623867 
2014.543654  	98.762825 
2015.980562  	98.582797 
2017.417469  	98.429254 
2018.854376  	98.446900 
2020.291283  	98.234284 
2021.728190  	97.969597 
2023.165097  	98.004044 
2024.602004  	98.068545 
2026.038911  	98.211447 
2027.475818  	98.402769 
2028.912725  	98.167078 
2030.349632  	97.836920 
2031.786539  	97.898298 
2033.223446  	98.006857 
2034.660353  	98.012821 
2036.097260  	98.015972 
2037.534167  	98.043070 
2038.971074  	98.251095 
2040.407981  	98.458884 
2041.844888  	98.468066 
2043.281795  	98.467558 
2044.718702  	98.350734 
2046.155609  	98.238685 
2047.592516  	98.297222 
2049.029423  	98.118687 
2050.466330  	97.920398 
2051.903237  	97.996011 
2053.340144  	97.927944 
2054.777051  	97.815698 
2056.213958  	97.943738 
2057.650865  	97.953210 
2059.087772  	97.848094 
2060.524679  	97.862480 
2061.961586  	97.904380 
2063.398493  	98.017707 
2064.835401  	98.131215 
2066.272308  	98.103512 
2067.709215  	98.082489 
2069.146122  	98.095597 
2070.583029  	98.083584 
2072.019936  	98.029203 
2073.456843  	97.947909 
2074.893750  	98.023670 
2076.330657  	98.219768 
2077.767564  	98.341157 
2079.204471  	98.399600 
2080.641378  	98.311133 
2082.078285  	98.119216 
2083.515192  	98.037289 
2084.952099  	98.022174 
2086.389006  	98.072581 
2087.825913  	98.240610 
2089.262820  	98.305120 
2090.699727  	98.227906 
2092.136634  	98.178783 
2093.573541  	98.171559 
2095.010448  	98.175880 
2096.447355  	98.182666 
2097.884262  	98.183438 
2099.321169  	98.171061 
2100.758076  	98.123592 
2102.194983  	98.104218 
2103.631890  	98.124852 
2105.068797  	98.121916 
2106.505704  	98.152087 
2107.942611  	98.216400 
2109.379518  	98.216524 
2110.816425  	98.173262 
2112.253332  	98.186036 
2113.690239  	98.262444 
2115.127147  	98.274296 
2116.564054  	98.200024 
2118.000961  	98.214501 
2119.437868  	98.316265 
2120.874775  	98.337084 
2122.311682  	98.316866 
2123.748589  	98.368007 
2125.185496  	98.415554 
2126.622403  	98.372468 
2128.059310  	98.341514 
2129.496217  	98.423298 
2130.933124  	98.553916 
2132.370031  	98.588556 
2133.806938  	98.422764 
2135.243845  	98.236484 
2136.680752  	98.313312 
2138.117659  	98.539433 
2139.554566  	98.692050 
2140.991473  	98.754589 
2142.428380  	98.713836 
2143.865287  	98.789538 
2145.302194  	98.952179 
2146.739101  	98.782977 
2148.176008  	98.594237 
2149.612915  	98.796270 
2151.049822  	98.904662 
2152.486729  	98.811174 
2153.923636  	98.950013 
2155.360543  	99.227270 
2156.797450  	99.276280 
2158.234357  	98.990906 
2159.671264  	98.674906 
2161.108171  	98.681343 
2162.545078  	98.600317 
2163.981985  	98.248003 
2165.418893  	98.043495 
2166.855800  	98.073206 
2168.292707  	98.333381 
2169.729614  	98.646746 
2171.166521  	98.581875 
2172.603428  	98.278799 
2174.040335  	98.246466 
2175.477242  	98.301407 
2176.914149  	98.166934 
2178.351056  	98.132089 
2179.787963  	98.330742 
2181.224870  	98.454007 
2182.661777  	98.410885 
2184.098684  	98.336214 
2185.535591  	98.238012 
2186.972498  	98.147789 
2188.409405  	98.142252 
2189.846312  	98.167799 
2191.283219  	98.221214 
2192.720126  	98.338438 
2194.157033  	98.441902 
2195.593940  	98.475597 
2197.030847  	98.532603 
2198.467754  	98.602443 
2199.904661  	98.509034 
2201.341568  	98.337072 
2202.778475  	98.351007 
2204.215382  	98.504938 
2205.652289  	98.535972 
2207.089196  	98.351885 
2208.526103  	98.161767 
2209.963010  	98.197880 
2211.399917  	98.327750 
2212.836824  	98.312023 
2214.273732  	98.286185 
2215.710639  	98.344795 
2217.147546  	98.370928 
2218.584453  	98.347359 
2220.021360  	98.278763 
2221.458267  	98.176931 
2222.895174  	98.174873 
2224.332081  	98.289572 
2225.768988  	98.367392 
2227.205895  	98.277653 
2228.642802  	98.107984 
2230.079709  	98.059753 
2231.516616  	98.125767 
2232.953523  	98.211374 
2234.390430  	98.320585 
2235.827337  	98.388637 
2237.264244  	98.400674 
2238.701151  	98.383492 
2240.138058  	98.288276 
2241.574965  	98.228543 
2243.011872  	98.309174 
2244.448779  	98.341393 
2245.885686  	98.273024 
2247.322593  	98.243470 
2248.759500  	98.250445 
2250.196407  	98.260035 
2251.633314  	98.251964 
2253.070221  	98.239624 
2254.507128  	98.244748 
2255.944035  	98.186214 
2257.380942  	98.080555 
2258.817849  	98.050012 
2260.254756  	98.062777 
2261.691663  	98.052184 
2263.128570  	98.053120 
2264.565478  	98.095120 
2266.002385  	98.090010 
2267.439292  	97.967179 
2268.876199  	97.898676 
2270.313106  	98.002782 
2271.750013  	98.078390 
2273.186920  	98.032091 
2274.623827  	97.986390 
2276.060734  	97.959329 
2277.497641  	97.941084 
2278.934548  	97.944416 
2280.371455  	97.935760 
2281.808362  	97.933781 
2283.245269  	97.950906 
2284.682176  	97.963589 
2286.119083  	97.976809 
2287.555990  	97.963162 
2288.992897  	97.938537 
2290.429804  	97.965711 
2291.866711  	98.005868 
2293.303618  	98.020963 
2294.740525  	98.017966 
2296.177432  	97.995901 
2297.614339  	98.014918 
2299.051246  	97.981730 
2300.488153  	98.042628 
2301.925060  	98.039653 
2303.361967  	98.068438 
2304.798874  	98.079026 
2306.235781  	98.085847 
2307.672688  	98.089584 
2309.109595  	98.122798 
2310.546502  	98.178819 
2311.983409  	98.166291 
2313.420317  	98.140784 
2314.857224  	98.129648 
2316.294131  	98.081628 
2317.731038  	98.076302 
2319.167945  	98.086345 
2320.604852  	98.056841 
2322.041759  	98.042653 
2323.478666  	97.976570 
2324.915573  	97.974177 
2326.352480  	98.140598 
2327.789387  	98.208591 
2329.226294  	98.155611 
2330.663201  	98.160691 
2332.100108  	98.112190 
2333.537015  	98.069506 
2334.973922  	98.153921 
2336.410829  	98.219352 
2337.847736  	98.255754 
2339.284643  	98.287821 
2340.721550  	98.260506 
2342.158457  	98.250522 
2343.595364  	98.290625 
2345.032271  	98.315258 
2346.469178  	98.283660 
2347.906085  	98.273044 
2349.342992  	98.343627 
2350.779899  	98.388517 
2352.216806  	98.371552 
2353.653713  	98.404629 
2355.090620  	98.427148 
2356.527527  	98.326646 
2357.964434  	98.217766 
2359.401341  	98.156250 
2360.838248  	98.166280 
2362.275155  	98.200062 
2363.712063  	98.157304 
2365.148970  	98.143516 
2366.585877  	98.103061 
2368.022784  	97.953826 
2369.459691  	97.902348 
2370.896598  	97.941911 
2372.333505  	97.948397 
2373.770412  	97.944464 
2375.207319  	97.941591 
2376.644226  	97.975831 
2378.081133  	98.009880 
2379.518040  	97.996533 
2380.954947  	98.042970 
2382.391854  	98.140696 
2383.828761  	98.175795 
2385.265668  	98.180244 
2386.702575  	98.204930 
2388.139482  	98.216307 
2389.576389  	98.189427 
2391.013296  	98.158757 
2392.450203  	98.192206 
2393.887110  	98.278379 
2395.324017  	98.308498 
2396.760924  	98.274168 
2398.197831  	98.264761 
2399.634738  	98.294829 
2401.071645  	98.327921 
2402.508552  	98.337633 
2403.945459  	98.334079 
2405.382366  	98.362829 
2406.819273  	98.387085 
2408.256180  	98.341458 
2409.693087  	98.301021 
2411.129994  	98.325793 
2412.566901  	98.330632 
2414.003809  	98.293278 
2415.440716  	98.289526 
2416.877623  	98.314077 
2418.314530  	98.321916 
2419.751437  	98.308671 
2421.188344  	98.275944 
2422.625251  	98.256560 
2424.062158  	98.264675 
2425.499065  	98.242943 
2426.935972  	98.200592 
2428.372879  	98.201796 
2429.809786  	98.218004 
2431.246693  	98.212211 
2432.683600  	98.219619 
2434.120507  	98.253742 
2435.557414  	98.287832 
2436.994321  	98.300954 
2438.431228  	98.269700 
2439.868135  	98.206311 
2441.305042  	98.172826 
2442.741949  	98.187025 
2444.178856  	98.209669 
2445.615763  	98.228061 
2447.052670  	98.241410 
2448.489577  	98.251952 
2449.926484  	98.269947 
2451.363391  	98.257752 
2452.800298  	98.210441 
2454.237205  	98.193518 
2455.674112  	98.189385 
2457.111019  	98.170818 
2458.547926  	98.197307 
2459.984833  	98.234282 
2461.421740  	98.215400 
2462.858648  	98.208623 
2464.295555  	98.245755 
2465.732462  	98.272016 
2467.169369  	98.284915 
2468.606276  	98.291993 
2470.043183  	98.280240 
2471.480090  	98.259320 
2472.916997  	98.225959 
2474.353904  	98.188966 
2475.790811  	98.195429 
2477.227718  	98.247719 
2478.664625  	98.278338 
2480.101532  	98.255381 
2481.538439  	98.231105 
2482.975346  	98.241940 
2484.412253  	98.250076 
2485.849160  	98.240912 
2487.286067  	98.260431 
2488.722974  	98.301166 
2490.159881  	98.292965 
2491.596788  	98.248544 
2493.033695  	98.241244 
2494.470602  	98.254083 
2495.907509  	98.242965 
2497.344416  	98.221215 
2498.781323  	98.185179 
2500.218230  	98.154325 
2501.655137  	98.183925 
2503.092044  	98.233560 
2504.528951  	98.224270 
2505.965858  	98.185225 
2507.402765  	98.207508 
2508.839672  	98.266075 
2510.276579  	98.231241 
2511.713486  	98.158396 
2513.150394  	98.196826 
2514.587301  	98.244659 
2516.024208  	98.223657 
2517.461115  	98.244550 
2518.898022  	98.267455 
2520.334929  	98.233753 
2521.771836  	98.225109 
2523.208743  	98.235436 
2524.645650  	98.251818 
2526.082557  	98.289826 
2527.519464  	98.283664 
2528.956371  	98.241592 
2530.393278  	98.208303 
2531.830185  	98.171528 
2533.267092  	98.155486 
2534.703999  	98.150814 
2536.140906  	98.143422 
2537.577813  	98.184120 
2539.014720  	98.236930 
2540.451627  	98.238353 
2541.888534  	98.221303 
2543.325441  	98.209166 
2544.762348  	98.192973 
2546.199255  	98.179938 
2547.636162  	98.182469 
2549.073069  	98.186597 
2550.509976  	98.170321 
2551.946883  	98.164490 
2553.383790  	98.177288 
2554.820697  	98.175296 
2556.257604  	98.183314 
2557.694511  	98.208757 
2559.131418  	98.213458 
2560.568325  	98.188497 
2562.005232  	98.145902 
2563.442140  	98.150878 
2564.879047  	98.201890 
2566.315954  	98.190440 
2567.752861  	98.158538 
2569.189768  	98.181002 
2570.626675  	98.180997 
2572.063582  	98.157999 
2573.500489  	98.155135 
2574.937396  	98.141800 
2576.374303  	98.142396 
2577.811210  	98.169824 
2579.248117  	98.180844 
2580.685024  	98.170067 
2582.121931  	98.138556 
2583.558838  	98.110699 
2584.995745  	98.118790 
2586.432652  	98.126753 
2587.869559  	98.112295 
2589.306466  	98.114540 
2590.743373  	98.147972 
2592.180280  	98.159240 
2593.617187  	98.114759 
2595.054094  	98.090215 
2596.491001  	98.139846 
2597.927908  	98.194700 
2599.364815  	98.196630 
2600.801722  	98.164587 
2602.238629  	98.134113 
2603.675536  	98.112773 
2605.112443  	98.093637 
2606.549350  	98.087429 
2607.986257  	98.091040 
2609.423164  	98.099052 
2610.860071  	98.113798 
2612.296979  	98.096531 
2613.733886  	98.062456 
2615.170793  	98.066437 
2616.607700  	98.067371 
2618.044607  	98.056681 
2619.481514  	98.065447 
2620.918421  	98.040959 
2622.355328  	98.008644 
2623.792235  	98.038827 
2625.229142  	98.069204 
2626.666049  	98.061595 
2628.102956  	98.054963 
2629.539863  	98.051484 
2630.976770  	98.047747 
2632.413677  	98.038247 
2633.850584  	98.019768 
2635.287491  	98.023825 
2636.724398  	98.045595 
2638.161305  	98.042195 
2639.598212  	98.020345 
2641.035119  	98.020914 
2642.472026  	98.032079 
2643.908933  	98.009714 
2645.345840  	97.983103 
2646.782747  	97.999648 
2648.219654  	98.013269 
2649.656561  	97.988822 
2651.093468  	97.973607 
2652.530375  	97.984839 
2653.967282  	97.996437 
2655.404189  	98.008520 
2656.841096  	98.017627 
2658.278003  	98.004730 
2659.714910  	97.989871 
2661.151817  	98.004197 
2662.588725  	98.039653 
2664.025632  	98.079672 
2665.462539  	98.105187 
2666.899446  	98.104873 
2668.336353  	98.110384 
2669.773260  	98.130648 
2671.210167  	98.140593 
2672.647074  	98.143351 
2674.083981  	98.131203 
2675.520888  	98.107434 
2676.957795  	98.107402 
2678.394702  	98.111378 
2679.831609  	98.105089 
2681.268516  	98.118055 
2682.705423  	98.128333 
2684.142330  	98.123844 
2685.579237  	98.121456 
2687.016144  	98.099360 
2688.453051  	98.075577 
2689.889958  	98.077576 
2691.326865  	98.067196 
2692.763772  	98.047730 
2694.200679  	98.050567 
2695.637586  	98.056043 
2697.074493  	98.061339 
2698.511400  	98.072806 
2699.948307  	98.065113 
2701.385214  	98.052503 
2702.822121  	98.068754 
2704.259028  	98.074727 
2705.695935  	98.042843 
2707.132842  	98.040306 
2708.569749  	98.082632 
2710.006656  	98.096718 
2711.443564  	98.086772 
2712.880471  	98.095541 
2714.317378  	98.099065 
2715.754285  	98.086806 
2717.191192  	98.076776 
2718.628099  	98.072335 
2720.065006  	98.078072 
2721.501913  	98.077635 
2722.938820  	98.062890 
2724.375727  	98.068004 
2725.812634  	98.082390 
2727.249541  	98.061004 
2728.686448  	98.032593 
2730.123355  	98.043794 
2731.560262  	98.060313 
2732.997169  	98.046538 
2734.434076  	98.044036 
2735.870983  	98.075134 
2737.307890  	98.090414 
2738.744797  	98.067640 
2740.181704  	98.044258 
2741.618611  	98.044724 
2743.055518  	98.054429 
2744.492425  	98.062862 
2745.929332  	98.075574 
2747.366239  	98.078199 
2748.803146  	98.068056 
2750.240053  	98.074135 
2751.676960  	98.083333 
2753.113867  	98.073891 
2754.550774  	98.070618 
2755.987681  	98.070049 
2757.424588  	98.058821 
2758.861495  	98.053194 
2760.298402  	98.039562 
2761.735310  	98.019458 
2763.172217  	98.026485 
2764.609124  	98.040368 
2766.046031  	98.035628 
2767.482938  	98.030945 
2768.919845  	98.031885 
2770.356752  	98.028564 
2771.793659  	98.020583 
2773.230566  	98.017885 
2774.667473  	98.025707 
2776.104380  	98.030404 
2777.541287  	98.029390 
2778.978194  	98.025766 
2780.415101  	98.012843 
2781.852008  	98.009383 
2783.288915  	98.019921 
2784.725822  	98.010922 
2786.162729  	97.993668 
2787.599636  	98.003375 
2789.036543  	98.021385 
2790.473450  	98.018610 
2791.910357  	98.003519 
2793.347264  	97.996656 
2794.784171  	98.002980 
2796.221078  	98.013303 
2797.657985  	98.016408 
2799.094892  	98.004540 
2800.531799  	97.989715 
2801.968706  	97.994950 
2803.405613  	98.015391 
2804.842520  	98.029248 
2806.279427  	98.019724 
2807.716334  	97.990012 
2809.153241  	97.975724 
2810.590148  	97.981306 
2812.027056  	97.978875 
2813.463963  	97.984693 
2814.900870  	97.998982 
2816.337777  	97.994067 
2817.774684  	97.993223 
2819.211591  	97.993689 
2820.648498  	97.968552 
2822.085405  	97.956439 
2823.522312  	97.969457 
2824.959219  	97.985138 
2826.396126  	98.012825 
2827.833033  	98.026571 
2829.269940  	98.005810 
2830.706847  	97.984037 
2832.143754  	97.969546 
2833.580661  	97.961343 
2835.017568  	97.961708 
2836.454475  	97.961581 
2837.891382  	97.972343 
2839.328289  	97.983536 
2840.765196  	97.981383 
2842.202103  	97.986070 
2843.639010  	97.983970 
2845.075917  	97.972614 
2846.512824  	97.971507 
2847.949731  	97.954065 
2849.386638  	97.937078 
2850.823545  	97.959897 
2852.260452  	97.988229 
2853.697359  	97.999988 
2855.134266  	97.994857 
2856.571173  	97.970625 
2858.008080  	97.958354 
2859.444987  	97.956008 
2860.881895  	97.935366 
2862.318802  	97.912555 
2863.755709  	97.915674 
2865.192616  	97.934046 
2866.629523  	97.924391 
2868.066430  	97.906757 
2869.503337  	97.922439 
2870.940244  	97.905770 
2872.377151  	97.859137 
2873.814058  	97.874247 
2875.250965  	97.895978 
2876.687872  	97.873988 
2878.124779  	97.868425 
2879.561686  	97.868308 
2880.998593  	97.860142 
2882.435500  	97.863314 
2883.872407  	97.855149 
2885.309314  	97.856219 
2886.746221  	97.879175 
2888.183128  	97.882454 
2889.620035  	97.879810 
2891.056942  	97.889672 
2892.493849  	97.886499 
2893.930756  	97.865240 
2895.367663  	97.840733 
2896.804570  	97.832955 
2898.241477  	97.846825 
2899.678384  	97.861439 
2901.115291  	97.865453 
2902.552198  	97.864637 
2903.989105  	97.868356 
2905.426012  	97.870614 
2906.862919  	97.863468 
2908.299826  	97.855126 
2909.736733  	97.845396 
2911.173641  	97.853786 
2912.610548  	97.883404 
2914.047455  	97.871106 
2915.484362  	97.837587 
2916.921269  	97.857426 
2918.358176  	97.876183 
2919.795083  	97.849757 
2921.231990  	97.833290 
2922.668897  	97.842887 
2924.105804  	97.865697 
2925.542711  	97.881886 
2926.979618  	97.856966 
2928.416525  	97.825556 
2929.853432  	97.837156 
2931.290339  	97.844366 
2932.727246  	97.805057 
2934.164153  	97.771684 
2935.601060  	97.764461 
2937.037967  	97.743342 
2938.474874  	97.724179 
2939.911781  	97.716020 
2941.348688  	97.694749 
2942.785595  	97.693658 
2944.222502  	97.692672 
2945.659409  	97.644924 
2947.096316  	97.633287 
2948.533223  	97.680390 
2949.970130  	97.695473 
2951.407037  	97.684996 
2952.843944  	97.684551 
2954.280851  	97.683433 
2955.717758  	97.684505 
2957.154665  	97.675650 
2958.591572  	97.666477 
2960.028479  	97.681700 
2961.465387  	97.679645 
2962.902294  	97.639590 
2964.339201  	97.606199 
2965.776108  	97.592157 
2967.213015  	97.584590 
2968.649922  	97.590489 
2970.086829  	97.592730 
2971.523736  	97.564039 
2972.960643  	97.544825 
2974.397550  	97.561123 
2975.834457  	97.557051 
2977.271364  	97.531991 
2978.708271  	97.527579 
2980.145178  	97.522673 
2981.582085  	97.510564 
2983.018992  	97.496721 
2984.455899  	97.470946 
2985.892806  	97.472532 
2987.329713  	97.508296 
2988.766620  	97.518064 
2990.203527  	97.490581 
2991.640434  	97.464736 
2993.077341  	97.460610 
2994.514248  	97.459395 
2995.951155  	97.444203 
2997.388062  	97.426931 
2998.824969  	97.407223 
3000.261876  	97.393762 
3001.698783  	97.390027 
3003.135690  	97.367408 
3004.572597  	97.356593 
3006.009504  	97.378570 
3007.446411  	97.376993 
3008.883318  	97.359853 
3010.320226  	97.349743 
3011.757133  	97.324609 
3013.194040  	97.306414 
3014.630947  	97.287035 
3016.067854  	97.245586 
3017.504761  	97.232902 
3018.941668  	97.250673 
3020.378575  	97.261552 
3021.815482  	97.269201 
3023.252389  	97.261402 
3024.689296  	97.231732 
3026.126203  	97.205448 
3027.563110  	97.198287 
3029.000017  	97.211048 
3030.436924  	97.220526 
3031.873831  	97.200058 
3033.310738  	97.159270 
3034.747645  	97.132654 
3036.184552  	97.137065 
3037.621459  	97.139675 
3039.058366  	97.108259 
3040.495273  	97.074342 
3041.932180  	97.071110 
3043.369087  	97.065198 
3044.805994  	97.033592 
3046.242901  	97.033757 
3047.679808  	97.071733 
3049.116715  	97.066284 
3050.553622  	97.026971 
3051.990529  	96.990064 
3053.427436  	96.936065 
3054.864343  	96.930827 
3056.301250  	96.992421 
3057.738157  	97.010650 
3059.175064  	96.981100 
3060.611972  	96.953045 
3062.048879  	96.928014 
3063.485786  	96.916485 
3064.922693  	96.888951 
3066.359600  	96.861667 
3067.796507  	96.888215 
3069.233414  	96.895139 
3070.670321  	96.847506 
3072.107228  	96.809495 
3073.544135  	96.784864 
3074.981042  	96.774666 
3076.417949  	96.781766 
3077.854856  	96.770192 
3079.291763  	96.752964 
3080.728670  	96.747238 
3082.165577  	96.719341 
3083.602484  	96.664764 
3085.039391  	96.630231 
3086.476298  	96.636469 
3087.913205  	96.635472 
3089.350112  	96.617541 
3090.787019  	96.627919 
3092.223926  	96.632854 
3093.660833  	96.596010 
3095.097740  	96.567939 
3096.534647  	96.559678 
3097.971554  	96.542518 
3099.408461  	96.529325 
3100.845368  	96.515889 
3102.282275  	96.483346 
3103.719182  	96.459328 
3105.156089  	96.446341 
3106.592996  	96.417210 
3108.029903  	96.413579 
3109.466811  	96.437144 
3110.903718  	96.408659 
3112.340625  	96.357325 
3113.777532  	96.328194 
3115.214439  	96.285507 
3116.651346  	96.268878 
3118.088253  	96.294170 
3119.525160  	96.290227 
3120.962067  	96.253405 
3122.398974  	96.204524 
3123.835881  	96.177156 
3125.272788  	96.187914 
3126.709695  	96.171193 
3128.146602  	96.141704 
3129.583509  	96.135823 
3131.020416  	96.114715 
3132.457323  	96.111608 
3133.894230  	96.127003 
3135.331137  	96.110747 
3136.768044  	96.100104 
3138.204951  	96.093436 
3139.641858  	96.081681 
3141.078765  	96.084208 
3142.515672  	96.059017 
3143.952579  	96.023183 
3145.389486  	95.996209 
3146.826393  	95.944278 
3148.263300  	95.908941 
3149.700207  	95.883989 
3151.137114  	95.849522 
3152.574021  	95.856968 
3154.010928  	95.861113 
3155.447835  	95.848620 
3156.884742  	95.861073 
3158.321649  	95.834688 
3159.758557  	95.787381 
3161.195464  	95.773429 
3162.632371  	95.733982 
3164.069278  	95.682389 
3165.506185  	95.662207 
3166.943092  	95.652741 
3168.379999  	95.660218 
3169.816906  	95.673623 
3171.253813  	95.661791 
3172.690720  	95.637613 
3174.127627  	95.621563 
3175.564534  	95.610884 
3177.001441  	95.615165 
3178.438348  	95.648813 
3179.875255  	95.641506 
3181.312162  	95.567004 
3182.749069  	95.533532 
3184.185976  	95.527313 
3185.622883  	95.482261 
3187.059790  	95.472472 
3188.496697  	95.485300 
3189.933604  	95.463870 
3191.370511  	95.456773 
3192.807418  	95.467149 
3194.244325  	95.477362 
3195.681232  	95.471004 
3197.118139  	95.420904 
3198.555046  	95.379228 
3199.991953  	95.360348 
3201.428860  	95.341906 
3202.865767  	95.344841 
3204.302674  	95.327448 
3205.739581  	95.298639 
3207.176488  	95.313787 
3208.613395  	95.311823 
3210.050303  	95.297701 
3211.487210  	95.328761 
3212.924117  	95.328877 
3214.361024  	95.273566 
3215.797931  	95.252819 
3217.234838  	95.278003 
3218.671745  	95.282489 
3220.108652  	95.246423 
3221.545559  	95.197689 
3222.982466  	95.168745 
3224.419373  	95.189593 
3225.856280  	95.209451 
3227.293187  	95.166282 
3228.730094  	95.140767 
3230.167001  	95.147388 
3231.603908  	95.115706 
3233.040815  	95.115464 
3234.477722  	95.138623 
3235.914629  	95.104996 
3237.351536  	95.100601 
3238.788443  	95.135673 
3240.225350  	95.135977 
3241.662257  	95.138343 
3243.099164  	95.130586 
3244.536071  	95.084314 
3245.972978  	95.052273 
3247.409885  	95.044135 
3248.846792  	95.056339 
3250.283699  	95.085140 
3251.720606  	95.078544 
3253.157513  	95.044527 
3254.594420  	95.050047 
3256.031327  	95.080942 
3257.468234  	95.079332 
3258.905142  	95.085814 
3260.342049  	95.129191 
3261.778956  	95.112862 
3263.215863  	95.043199 
3264.652770  	95.041500 
3266.089677  	95.074751 
3267.526584  	95.072572 
3268.963491  	95.085218 
3270.400398  	95.104714 
3271.837305  	95.064953 
3273.274212  	95.010144 
3274.711119  	95.010647 
3276.148026  	95.036944 
3277.584933  	95.042081 
3279.021840  	95.019589 
3280.458747  	94.994043 
3281.895654  	95.010665 
3283.332561  	95.027371 
3284.769468  	94.992942 
3286.206375  	94.978288 
3287.643282  	94.985698 
3289.080189  	94.976835 
3290.517096  	94.993320 
3291.954003  	94.993666 
3293.390910  	94.986974 
3294.827817  	95.043259 
3296.264724  	95.051948 
3297.701631  	95.004205 
3299.138538  	95.013353 
3300.575445  	95.026282 
3302.012352  	95.026596 
3303.449259  	95.025475 
3304.886166  	94.977971 
3306.323073  	94.964611 
3307.759980  	94.988149 
3309.196888  	94.962904 
3310.633795  	94.960201 
3312.070702  	95.004745 
3313.507609  	95.025284 
3314.944516  	95.001191 
3316.381423  	94.946193 
3317.818330  	94.938876 
3319.255237  	94.995623 
3320.692144  	95.005542 
3322.129051  	94.957772 
3323.565958  	94.936971 
3325.002865  	94.959796 
3326.439772  	94.985159 
3327.876679  	94.989348 
3329.313586  	94.974711 
3330.750493  	94.943849 
3332.187400  	94.930710 
3333.624307  	94.951935 
3335.061214  	94.976049 
3336.498121  	95.006346 
3337.935028  	95.010057 
3339.371935  	94.967149 
3340.808842  	94.962111 
3342.245749  	94.982820 
3343.682656  	94.975446 
3345.119563  	94.989417 
3346.556470  	95.027938 
3347.993377  	95.049178 
3349.430284  	95.018701 
3350.867191  	94.959617 
3352.304098  	94.958671 
3353.741005  	94.951590 
3355.177912  	94.895545 
3356.614819  	94.923867 
3358.051726  	94.998050 
3359.488634  	95.010033 
3360.925541  	94.999516 
3362.362448  	94.987437 
3363.799355  	94.984946 
3365.236262  	94.971838 
3366.673169  	94.937073 
3368.110076  	94.950740 
3369.546983  	94.958548 
3370.983890  	94.938607 
3372.420797  	94.988973 
3373.857704  	95.040256 
3375.294611  	95.043350 
3376.731518  	95.059344 
3378.168425  	95.054383 
3379.605332  	95.033558 
3381.042239  	95.033871 
3382.479146  	95.044704 
3383.916053  	95.081498 
3385.352960  	95.100534 
3386.789867  	95.067535 
3388.226774  	95.042999 
3389.663681  	95.055022 
3391.100588  	95.090159 
3392.537495  	95.113479 
3393.974402  	95.102677 
3395.411309  	95.065965 
3396.848216  	95.017852 
3398.285123  	95.032155 
3399.722030  	95.110646 
3401.158937  	95.149469 
3402.595844  	95.138219 
3404.032751  	95.106159 
3405.469658  	95.100028 
3406.906565  	95.148654 
3408.343473  	95.177191 
3409.780380  	95.181707 
3411.217287  	95.183519 
3412.654194  	95.185311 
3414.091101  	95.257527 
3415.528008  	95.292269 
3416.964915  	95.225209 
3418.401822  	95.240912 
3419.838729  	95.278508 
3421.275636  	95.230398 
3422.712543  	95.257248 
3424.149450  	95.329935 
3425.586357  	95.332729 
3427.023264  	95.299461 
3428.460171  	95.265295 
3429.897078  	95.280636 
3431.333985  	95.307475 
3432.770892  	95.289742 
3434.207799  	95.314987 
3435.644706  	95.369628 
3437.081613  	95.377935 
3438.518520  	95.392301 
3439.955427  	95.447464 
3441.392334  	95.492536 
3442.829241  	95.484345 
3444.266148  	95.476823 
3445.703055  	95.496861 
3447.139962  	95.467015 
3448.576869  	95.460042 
3450.013776  	95.537205 
3451.450683  	95.557495 
3452.887590  	95.531451 
3454.324497  	95.541974 
3455.761404  	95.545803 
3457.198311  	95.547179 
3458.635219  	95.573279 
3460.072126  	95.597827 
3461.509033  	95.604084 
3462.945940  	95.601716 
3464.382847  	95.599076 
3465.819754  	95.573308 
3467.256661  	95.578731 
3468.693568  	95.640437 
3470.130475  	95.620393 
3471.567382  	95.575704 
3473.004289  	95.648001 
3474.441196  	95.717434 
3475.878103  	95.728329 
3477.315010  	95.754945 
3478.751917  	95.782340 
3480.188824  	95.787634 
3481.625731  	95.767712 
3483.062638  	95.793570 
3484.499545  	95.887256 
3485.936452  	95.913197 
3487.373359  	95.892621 
3488.810266  	95.912010 
3490.247173  	95.925359 
3491.684080  	95.945403 
3493.120987  	95.966272 
3494.557894  	95.946077 
3495.994801  	95.938887 
3497.431708  	95.957555 
3498.868615  	95.977172 
3500.305522  	95.977008 
3501.742429  	95.957333 
3503.179336  	96.000417 
3504.616243  	96.062240 
3506.053150  	96.063431 
3507.490058  	96.087538 
3508.926965  	96.115439 
3510.363872  	96.115526 
3511.800779  	96.129974 
3513.237686  	96.113624 
3514.674593  	96.096845 
3516.111500  	96.135271 
3517.548407  	96.167470 
3518.985314  	96.174570 
3520.422221  	96.173736 
3521.859128  	96.194454 
3523.296035  	96.257556 
3524.732942  	96.277903 
3526.169849  	96.230204 
3527.606756  	96.184079 
3529.043663  	96.194015 
3530.480570  	96.295746 
3531.917477  	96.379232 
3533.354384  	96.362696 
3534.791291  	96.318127 
3536.228198  	96.295683 
3537.665105  	96.306753 
3539.102012  	96.329072 
3540.538919  	96.353104 
3541.975826  	96.388259 
3543.412733  	96.407705 
3544.849640  	96.412732 
3546.286547  	96.432183 
3547.723454  	96.416562 
3549.160361  	96.432065 
3550.597268  	96.495042 
3552.034175  	96.510282 
3553.471082  	96.479164 
3554.907989  	96.482022 
3556.344896  	96.479147 
3557.781804  	96.477966 
3559.218711  	96.497169 
3560.655618  	96.528402 
3562.092525  	96.522085 
3563.529432  	96.533885 
3564.966339  	96.628734 
3566.403246  	96.697210 
3567.840153  	96.632452 
3569.277060  	96.618194 
3570.713967  	96.645995 
3572.150874  	96.689597 
3573.587781  	96.798796 
3575.024688  	96.809799 
3576.461595  	96.726501 
3577.898502  	96.753569 
3579.335409  	96.793675 
3580.772316  	96.751714 
3582.209223  	96.714280 
3583.646130  	96.687533 
3585.083037  	96.717641 
3586.519944  	96.826058 
3587.956851  	96.853264 
3589.393758  	96.771473 
3590.830665  	96.821630 
3592.267572  	96.944366 
3593.704479  	96.996153 
3595.141386  	96.931157 
3596.578293  	96.881431 
3598.015200  	96.902317 
3599.452107  	96.955421 
3600.889014  	97.006376 
3602.325921  	97.004542 
3603.762828  	97.015370 
3605.199735  	97.093539 
3606.636642  	97.162001 
3608.073550  	97.154671 
3609.510457  	97.087858 
3610.947364  	97.096893 
3612.384271  	97.187199 
3613.821178  	97.169032 
3615.258085  	97.047772 
3616.694992  	97.098119 
3618.131899  	97.217470 
3619.568806  	97.150783 
3621.005713  	97.008863 
3622.442620  	97.037057 
3623.879527  	97.040944 
3625.316434  	96.977203 
3626.753341  	97.101792 
3628.190248  	97.383681 
3629.627155  	97.295798 
3631.064062  	97.058996 
3632.500969  	97.236611 
3633.937876  	97.326199 
3635.374783  	97.226746 
3636.811690  	97.205638 
3638.248597  	97.221183 
3639.685504  	97.225581 
3641.122411  	97.277820 
3642.559318  	97.274870 
3643.996225  	97.276839 
3645.433132  	97.406883 
3646.870039  	97.444515 
3648.306946  	97.235786 
3649.743853  	97.263418 
3651.180760  	97.424080 
3652.617667  	97.364966 
3654.054574  	97.438319 
3655.491481  	97.597532 
3656.928389  	97.624069 
3658.365296  	97.534557 
3659.802203  	97.559033 
3661.239110  	97.609896 
3662.676017  	97.601169 
3664.112924  	97.599450 
3665.549831  	97.633655 
3666.986738  	97.658282 
3668.423645  	97.696553 
3669.860552  	97.719091 
3671.297459  	97.576330 
3672.734366  	97.607468 
3674.171273  	97.802426 
3675.608180  	97.844700 
3677.045087  	97.557063 
3678.481994  	97.605223 
3679.918901  	97.662540 
3681.355808  	97.650954 
3682.792715  	97.677333 
3684.229622  	97.617460 
3685.666529  	97.603057 
3687.103436  	97.806031 
3688.540343  	97.918327 
3689.977250  	97.754248 
3691.414157  	97.689700 
3692.851064  	97.670996 
3694.287971  	97.659616 
3695.724878  	97.682339 
3697.161785  	97.711809 
3698.598692  	97.790017 
3700.035599  	97.851889 
3701.472506  	97.807990 
3702.909413  	97.731122 
3704.346320  	97.734334 
3705.783227  	97.789467 
3707.220135  	97.891388 
3708.657042  	97.999768 
3710.093949  	98.063978 
3711.530856  	98.052495 
3712.967763  	97.873537 
3714.404670  	97.718672 
3715.841577  	97.783828 
3717.278484  	97.922453 
3718.715391  	97.977498 
3720.152298  	98.005288 
3721.589205  	98.046045 
3723.026112  	97.980747 
3724.463019  	97.906424 
3725.899926  	97.949998 
3727.336833  	97.912968 
3728.773740  	97.857318 
3730.210647  	97.983740 
3731.647554  	98.072192 
3733.084461  	98.029837 
3734.521368  	98.045682 
3735.958275  	98.053422 
3737.395182  	97.873727 
3738.832089  	97.873981 
3740.268996  	97.906039 
3741.705903  	97.910136 
3743.142810  	98.057232 
3744.579717  	98.145071 
3746.016624  	97.774037 
3747.453531  	97.792884 
3748.890438  	97.928989 
3750.327345  	97.926180 
3751.764252  	97.881855 
3753.201159  	97.721247 
3754.638066  	97.635836 
3756.074973  	97.702225 
3757.511881  	97.713522 
3758.948788  	97.688214 
3760.385695  	97.666729 
3761.822602  	97.595659 
3763.259509  	97.654590 
3764.696416  	97.803036 
3766.133323  	97.772663 
3767.570230  	97.831333 
3769.007137  	97.933426 
3770.444044  	97.752705 
3771.880951  	97.603993 
3773.317858  	97.733965 
3774.754765  	97.856658 
3776.191672  	97.872299 
3777.628579  	97.899800 
3779.065486  	97.925705 
3780.502393  	97.875734 
3781.939300  	97.876743 
3783.376207  	97.955398 
3784.813114  	97.951174 
3786.250021  	97.884462 
3787.686928  	97.894146 
3789.123835  	97.898998 
3790.560742  	97.886658 
3791.997649  	97.853678 
3793.434556  	97.901514 
3794.871463  	97.921970 
3796.308370  	97.970377 
3797.745277  	97.873191 
3799.182184  	97.899509 
3800.619091  	98.133940 
3802.055998  	98.134153 
3803.492905  	97.745920 
3804.929812  	97.836527 
3806.366720  	98.049338 
3807.803627  	97.961234 
3809.240534  	97.809994 
3810.677441  	97.881030 
3812.114348  	97.883666 
3813.551255  	97.885601 
3814.988162  	97.978749 
3816.425069  	97.912948 
3817.861976  	97.772546 
3819.298883  	97.932871 
3820.735790  	98.080197 
3822.172697  	97.824304 
3823.609604  	97.708862 
3825.046511  	97.900003 
3826.483418  	97.943504 
3827.920325  	97.763631 
3829.357232  	97.785548 
3830.794139  	97.900459 
3832.231046  	97.883111 
3833.667953  	97.886154 
3835.104860  	97.930206 
3836.541767  	97.931559 
3837.978674  	97.998076 
3839.415581  	97.947151 
3840.852488  	97.775207 
3842.289395  	97.834883 
3843.726302  	97.924996 
3845.163209  	97.838645 
3846.600116  	97.803086 
3848.037023  	97.862289 
3849.473930  	97.906527 
3850.910837  	98.021264 
3852.347744  	98.273611 
3853.784651  	98.296987 
3855.221558  	97.831327 
3856.658466  	97.767873 
3858.095373  	97.773128 
3859.532280  	97.834186 
3860.969187  	97.925384 
3862.406094  	97.941253 
3863.843001  	97.975245 
3865.279908  	97.887986 
3866.716815  	97.712666 
3868.153722  	97.906693 
3869.590629  	98.087336 
3871.027536  	97.736232 
3872.464443  	97.698946 
3873.901350  	97.884681 
3875.338257  	97.776637 
3876.775164  	97.694632 
3878.212071  	97.829456 
3879.648978  	97.954237 
3881.085885  	97.854390 
3882.522792  	97.710580 
3883.959699  	97.874201 
3885.396606  	98.041567 
3886.833513  	97.828340 
3888.270420  	97.739699 
3889.707327  	97.899756 
3891.144234  	97.968665 
3892.581141  	97.855914 
3894.018048  	97.796489 
3895.454955  	97.837975 
3896.891862  	97.920882 
3898.328769  	97.957612 
3899.765676  	97.860689 
3901.202583  	97.787058 
3902.639490  	97.914988 
3904.076397  	97.965454 
3905.513305  	97.781767 
3906.950212  	97.733109 
3908.387119  	97.812648 
3909.824026  	97.845738 
3911.260933  	97.853364 
3912.697840  	97.839219 
3914.134747  	97.852074 
3915.571654  	97.927914 
3917.008561  	97.932245 
3918.445468  	97.868257 
3919.882375  	97.843889 
3921.319282  	97.800219 
3922.756189  	97.834783 
3924.193096  	97.916020 
3925.630003  	97.867479 
3927.066910  	97.837619 
3928.503817  	97.900563 
3929.940724  	97.910991 
3931.377631  	97.903453 
3932.814538  	97.906296 
3934.251445  	97.863765 
3935.688352  	97.864878 
3937.125259  	97.898313 
3938.562166  	97.881984 
3939.999073  	97.875057 
3941.435980  	97.927806 
3942.872887  	97.915391 
3944.309794  	97.795614 
3945.746701  	97.805687 
3947.183608  	97.936790 
3948.620515  	97.960850 
3950.057422  	97.863887 
3951.494329  	97.817212 
3952.931236  	97.811396 
3954.368143  	97.821167 
3955.805051  	97.849317 
3957.241958  	97.860077 
3958.678865  	97.869624 
3960.115772  	97.893585 
3961.552679  	97.890819 
3962.989586  	97.844525 
3964.426493  	97.787952 
3965.863400  	97.785013 
3967.300307  	97.840451 
3968.737214  	97.869109 
3970.174121  	97.875947 
3971.611028  	97.933236 
3973.047935  	97.961701 
3974.484842  	97.915745 
3975.921749  	97.897466 
3977.358656  	97.904986 
3978.795563  	97.886964 
3980.232470  	97.881218 
3981.669377  	97.893306 
3983.106284  	97.904205 
3984.543191  	97.887476 
3985.980098  	97.836966 
3987.417005  	97.848726 
3988.853912  	97.913239 
3990.290819  	97.903210 
3991.727726  	97.866528 
3993.164633  	97.879331 
3994.601540  	97.872804 
3996.038447  	97.842363 
3997.475354  	97.834404 
3998.912261  	97.825412 
4000.349168  	97.810255 