##TITLE=No Description
##DATA TYPE=INFRARED SPECTRUM
##XUNITS=1/CM
##YUNITS=%T
399.460154  	87.942957 
400.897061  	88.921817 
402.333968  	89.403948 
403.770875  	90.323357 
405.207782  	90.626692 
406.644689  	90.959121 
408.081596  	91.085850 
409.518503  	88.936598 
410.955410  	88.234114 
412.392317  	89.623743 
413.829224  	89.556377 
415.266131  	89.645154 
416.703038  	90.510380 
418.139945  	91.141463 
419.576852  	90.608960 
421.013759  	89.457584 
422.450666  	89.503114 
423.887574  	89.807999 
425.324481  	89.237649 
426.761388  	89.116402 
428.198295  	88.945381 
429.635202  	88.618644 
431.072109  	88.913391 
432.509016  	89.053576 
433.945923  	89.185216 
435.382830  	89.470206 
436.819737  	89.361920 
438.256644  	89.014265 
439.693551  	88.208115 
441.130458  	88.249543 
442.567365  	89.761425 
444.004272  	89.698365 
445.441179  	88.999915 
446.878086  	89.333175 
448.314993  	89.651542 
449.751900  	90.116769 
451.188807  	90.398979 
452.625714  	89.700287 
454.062621  	89.044985 
455.499528  	88.871027 
456.936435  	89.075161 
458.373342  	89.085111 
459.810249  	88.701885 
461.247156  	89.063510 
462.684063  	89.593386 
464.120970  	89.760027 
465.557877  	89.673561 
466.994784  	88.854291 
468.431691  	88.844178 
469.868598  	89.598467 
471.305505  	89.242390 
472.742413  	89.006592 
474.179320  	89.262205 
475.616227  	88.764050 
477.053134  	88.482824 
478.490041  	88.545893 
479.926948  	88.780813 
481.363855  	89.190974 
482.800762  	89.116851 
484.237669  	89.171473 
485.674576  	89.308635 
487.111483  	88.866361 
488.548390  	88.855959 
489.985297  	89.123262 
491.422204  	89.088258 
492.859111  	89.111367 
494.296018  	88.862765 
495.732925  	88.680914 
497.169832  	88.890089 
498.606739  	88.878187 
500.043646  	88.885790 
501.480553  	89.093338 
502.917460  	89.290607 
504.354367  	89.517545 
505.791274  	89.382027 
507.228181  	88.999340 
508.665088  	88.900057 
510.101995  	89.005504 
511.538902  	89.271322 
512.975809  	89.215345 
514.412716  	88.797208 
515.849623  	88.781550 
517.286530  	88.937732 
518.723437  	88.979138 
520.160344  	89.092657 
521.597251  	88.970925 
523.034159  	88.888699 
524.471066  	88.985120 
525.907973  	88.901605 
527.344880  	88.908773 
528.781787  	89.069944 
530.218694  	89.159486 
531.655601  	89.148054 
533.092508  	88.951064 
534.529415  	88.853747 
535.966322  	88.928524 
537.403229  	88.889566 
538.840136  	88.840974 
540.277043  	88.784566 
541.713950  	88.764013 
543.150857  	88.886072 
544.587764  	88.904422 
546.024671  	88.995714 
547.461578  	89.224865 
548.898485  	89.098382 
550.335392  	88.792093 
551.772299  	88.680138 
553.209206  	88.727040 
554.646113  	88.884887 
556.083020  	88.955603 
557.519927  	88.907208 
558.956834  	88.874962 
560.393741  	88.870436 
561.830648  	89.023138 
563.267555  	89.144180 
564.704462  	88.970975 
566.141369  	88.864729 
567.578276  	88.979659 
569.015183  	89.004517 
570.452090  	88.900075 
571.888997  	88.870309 
573.325905  	88.968962 
574.762812  	89.053403 
576.199719  	89.079627 
577.636626  	89.090131 
579.073533  	89.021090 
580.510440  	88.963093 
581.947347  	89.032605 
583.384254  	89.067333 
584.821161  	89.016491 
586.258068  	89.036950 
587.694975  	89.155111 
589.131882  	89.197496 
590.568789  	89.161396 
592.005696  	89.253058 
593.442603  	89.277670 
594.879510  	89.099866 
596.316417  	89.091018 
597.753324  	89.184878 
599.190231  	89.134666 
600.627138  	89.157399 
602.064045  	89.202982 
603.500952  	89.140326 
604.937859  	89.167436 
606.374766  	89.210457 
607.811673  	89.210909 
609.248580  	89.226971 
610.685487  	89.221129 
612.122394  	89.182977 
613.559301  	89.156705 
614.996208  	89.137312 
616.433115  	89.181588 
617.870022  	89.268034 
619.306929  	89.319870 
620.743836  	89.303603 
622.180744  	89.246299 
623.617651  	89.285122 
625.054558  	89.368186 
626.491465  	89.363771 
627.928372  	89.329208 
629.365279  	89.367156 
630.802186  	89.440628 
632.239093  	89.450849 
633.676000  	89.457876 
635.112907  	89.459368 
636.549814  	89.479098 
637.986721  	89.518762 
639.423628  	89.537465 
640.860535  	89.525618 
642.297442  	89.515121 
643.734349  	89.531883 
645.171256  	89.588738 
646.608163  	89.680765 
648.045070  	89.723412 
649.481977  	89.719322 
650.918884  	89.731056 
652.355791  	89.765992 
653.792698  	89.830504 
655.229605  	89.858274 
656.666512  	89.835925 
658.103419  	89.859879 
659.540326  	89.907276 
660.977233  	89.927832 
662.414140  	89.923828 
663.851047  	89.903935 
665.287954  	89.923446 
666.724861  	89.967499 
668.161768  	89.982846 
669.598675  	90.016039 
671.035582  	90.052817 
672.472490  	90.072549 
673.909397  	90.109754 
675.346304  	90.165449 
676.783211  	90.174673 
678.220118  	90.153302 
679.657025  	90.166490 
681.093932  	90.213283 
682.530839  	90.228416 
683.967746  	90.205572 
685.404653  	90.198659 
686.841560  	90.206535 
688.278467  	90.266953 
689.715374  	90.319801 
691.152281  	90.299693 
692.589188  	90.318792 
694.026095  	90.390526 
695.463002  	90.439877 
696.899909  	90.500553 
698.336816  	90.554394 
699.773723  	90.590972 
701.210630  	90.627117 
702.647537  	90.624820 
704.084444  	90.653969 
705.521351  	90.734070 
706.958258  	90.751411 
708.395165  	90.741384 
709.832072  	90.759982 
711.268979  	90.805198 
712.705886  	90.850437 
714.142793  	90.837636 
715.579700  	90.845322 
717.016607  	90.908162 
718.453514  	90.931957 
719.890421  	90.981247 
721.327328  	91.045905 
722.764236  	91.047208 
724.201143  	91.032028 
725.638050  	91.001496 
727.074957  	91.028022 
728.511864  	91.163735 
729.948771  	91.241401 
731.385678  	91.229450 
732.822585  	91.266549 
734.259492  	91.293714 
735.696399  	91.287386 
737.133306  	91.324220 
738.570213  	91.389243 
740.007120  	91.452692 
741.444027  	91.475775 
742.880934  	91.466796 
744.317841  	91.511845 
745.754748  	91.601289 
747.191655  	91.665970 
748.628562  	91.716289 
750.065469  	91.761199 
751.502376  	91.734856 
752.939283  	91.664804 
754.376190  	91.697298 
755.813097  	91.797083 
757.250004  	91.840650 
758.686911  	91.887535 
760.123818  	91.936087 
761.560725  	91.913388 
762.997632  	91.925213 
764.434539  	92.023114 
765.871446  	92.097197 
767.308353  	92.120680 
768.745260  	92.151024 
770.182167  	92.182809 
771.619075  	92.174618 
773.055982  	92.165278 
774.492889  	92.207900 
775.929796  	92.268922 
777.366703  	92.333854 
778.803610  	92.398723 
780.240517  	92.438233 
781.677424  	92.480299 
783.114331  	92.507712 
784.551238  	92.490152 
785.988145  	92.497164 
787.425052  	92.551457 
788.861959  	92.634849 
790.298866  	92.725801 
791.735773  	92.740873 
793.172680  	92.724641 
794.609587  	92.787898 
796.046494  	92.861723 
797.483401  	92.882034 
798.920308  	92.884521 
800.357215  	92.892149 
801.794122  	92.937706 
803.231029  	92.996757 
804.667936  	93.026617 
806.104843  	93.068122 
807.541750  	93.104335 
808.978657  	93.104188 
810.415564  	93.128483 
811.852471  	93.183437 
813.289378  	93.257140 
814.726285  	93.348772 
816.163192  	93.385748 
817.600099  	93.394560 
819.037006  	93.446020 
820.473913  	93.477647 
821.910821  	93.503704 
823.347728  	93.568158 
824.784635  	93.587070 
826.221542  	93.579009 
827.658449  	93.622361 
829.095356  	93.691952 
830.532263  	93.761183 
831.969170  	93.779810 
833.406077  	93.758169 
834.842984  	93.809267 
836.279891  	93.890840 
837.716798  	93.923142 
839.153705  	93.978737 
840.590612  	94.044924 
842.027519  	94.043473 
843.464426  	94.032668 
844.901333  	94.071460 
846.338240  	94.122715 
847.775147  	94.193004 
849.212054  	94.310219 
850.648961  	94.394138 
852.085868  	94.402139 
853.522775  	94.409819 
854.959682  	94.426488 
856.396589  	94.447163 
857.833496  	94.495354 
859.270403  	94.519332 
860.707310  	94.534666 
862.144217  	94.586868 
863.581124  	94.613105 
865.018031  	94.631884 
866.454938  	94.701405 
867.891845  	94.757859 
869.328752  	94.764874 
870.765660  	94.781859 
872.202567  	94.846021 
873.639474  	94.890655 
875.076381  	94.877708 
876.513288  	94.901199 
877.950195  	94.964442 
879.387102  	94.999157 
880.824009  	95.035820 
882.260916  	95.074207 
883.697823  	95.104754 
885.134730  	95.136910 
886.571637  	95.157349 
888.008544  	95.222138 
889.445451  	95.281151 
890.882358  	95.246982 
892.319265  	95.251251 
893.756172  	95.310217 
895.193079  	95.324024 
896.629986  	95.351072 
898.066893  	95.388583 
899.503800  	95.422708 
900.940707  	95.487353 
902.377614  	95.496138 
903.814521  	95.484463 
905.251428  	95.557111 
906.688335  	95.626132 
908.125242  	95.645576 
909.562149  	95.658418 
910.999056  	95.651604 
912.435963  	95.638561 
913.872870  	95.659165 
915.309777  	95.706528 
916.746684  	95.742896 
918.183591  	95.762182 
919.620498  	95.781070 
921.057406  	95.795626 
922.494313  	95.826987 
923.931220  	95.852117 
925.368127  	95.830126 
926.805034  	95.844146 
928.241941  	95.908223 
929.678848  	95.942098 
931.115755  	95.969078 
932.552662  	95.999991 
933.989569  	96.018304 
935.426476  	96.038351 
936.863383  	96.049776 
938.300290  	96.071333 
939.737197  	96.090108 
941.174104  	96.098066 
942.611011  	96.137705 
944.047918  	96.141563 
945.484825  	96.129015 
946.921732  	96.196438 
948.358639  	96.235127 
949.795546  	96.228624 
951.232453  	96.249598 
952.669360  	96.237804 
954.106267  	96.257702 
955.543174  	96.320807 
956.980081  	96.300076 
958.416988  	96.285394 
959.853895  	96.328544 
961.290802  	96.337325 
962.727709  	96.355453 
964.164616  	96.413020 
965.601523  	96.463747 
967.038430  	96.480171 
968.475337  	96.458060 
969.912244  	96.451393 
971.349152  	96.464492 
972.786059  	96.473697 
974.222966  	96.501533 
975.659873  	96.509621 
977.096780  	96.488033 
978.533687  	96.483602 
979.970594  	96.498643 
981.407501  	96.538080 
982.844408  	96.574067 
984.281315  	96.595172 
985.718222  	96.634334 
987.155129  	96.640821 
988.592036  	96.627280 
990.028943  	96.658723 
991.465850  	96.683026 
992.902757  	96.702506 
994.339664  	96.731762 
995.776571  	96.709263 
997.213478  	96.685867 
998.650385  	96.709517 
1000.087292  	96.739351 
1001.524199  	96.780947 
1002.961106  	96.807219 
1004.398013  	96.786110 
1005.834920  	96.772852 
1007.271827  	96.789435 
1008.708734  	96.812875 
1010.145641  	96.839447 
1011.582548  	96.859943 
1013.019455  	96.869120 
1014.456362  	96.878967 
1015.893269  	96.890342 
1017.330176  	96.893501 
1018.767083  	96.898408 
1020.203991  	96.906162 
1021.640898  	96.899385 
1023.077805  	96.900875 
1024.514712  	96.925774 
1025.951619  	96.939813 
1027.388526  	96.929406 
1028.825433  	96.909333 
1030.262340  	96.904714 
1031.699247  	96.919975 
1033.136154  	96.923603 
1034.573061  	96.921187 
1036.009968  	96.926278 
1037.446875  	96.924494 
1038.883782  	96.928974 
1040.320689  	96.951536 
1041.757596  	96.981748 
1043.194503  	96.989153 
1044.631410  	96.962519 
1046.068317  	96.964428 
1047.505224  	96.983396 
1048.942131  	96.968933 
1050.379038  	96.983823 
1051.815945  	97.005136 
1053.252852  	96.969387 
1054.689759  	96.954503 
1056.126666  	96.975337 
1057.563573  	96.992073 
1059.000480  	97.020063 
1060.437387  	97.035304 
1061.874294  	97.040503 
1063.311201  	97.059434 
1064.748108  	97.075266 
1066.185015  	97.078668 
1067.621922  	97.052738 
1069.058829  	97.032271 
1070.495737  	97.044266 
1071.932644  	97.038035 
1073.369551  	97.044723 
1074.806458  	97.070784 
1076.243365  	97.049622 
1077.680272  	97.028445 
1079.117179  	97.025822 
1080.554086  	97.021745 
1081.990993  	97.051785 
1083.427900  	97.072421 
1084.864807  	97.069096 
1086.301714  	97.072299 
1087.738621  	97.049212 
1089.175528  	97.033953 
1090.612435  	97.042786 
1092.049342  	97.031642 
1093.486249  	97.027571 
1094.923156  	97.031027 
1096.360063  	97.036354 
1097.796970  	97.051230 
1099.233877  	97.027423 
1100.670784  	96.998349 
1102.107691  	97.004740 
1103.544598  	97.004923 
1104.981505  	97.013031 
1106.418412  	97.027064 
1107.855319  	97.021360 
1109.292226  	97.022708 
1110.729133  	97.026538 
1112.166040  	97.033987 
1113.602947  	97.048671 
1115.039854  	97.045871 
1116.476761  	97.050883 
1117.913668  	97.068543 
1119.350575  	97.073024 
1120.787483  	97.068156 
1122.224390  	97.046959 
1123.661297  	97.029877 
1125.098204  	97.038067 
1126.535111  	97.059601 
1127.972018  	97.092020 
1129.408925  	97.094923 
1130.845832  	97.071101 
1132.282739  	97.074600 
1133.719646  	97.068370 
1135.156553  	97.043506 
1136.593460  	97.042474 
1138.030367  	97.046256 
1139.467274  	97.052242 
1140.904181  	97.058674 
1142.341088  	97.066045 
1143.777995  	97.094673 
1145.214902  	97.088762 
1146.651809  	97.053054 
1148.088716  	97.059705 
1149.525623  	97.062559 
1150.962530  	97.036054 
1152.399437  	97.027437 
1153.836344  	97.039490 
1155.273251  	97.062213 
1156.710158  	97.062766 
1158.147065  	97.041409 
1159.583972  	97.042359 
1161.020879  	97.029505 
1162.457786  	97.001289 
1163.894693  	97.019781 
1165.331600  	97.044868 
1166.768507  	97.032354 
1168.205414  	97.021692 
1169.642322  	97.027792 
1171.079229  	97.018907 
1172.516136  	96.992252 
1173.953043  	96.991385 
1175.389950  	97.010811 
1176.826857  	97.011364 
1178.263764  	97.016210 
1179.700671  	97.023537 
1181.137578  	97.003044 
1182.574485  	96.983724 
1184.011392  	96.984578 
1185.448299  	96.996864 
1186.885206  	97.007829 
1188.322113  	96.998174 
1189.759020  	96.987332 
1191.195927  	96.983135 
1192.632834  	96.970627 
1194.069741  	96.967787 
1195.506648  	96.967760 
1196.943555  	96.954639 
1198.380462  	96.945972 
1199.817369  	96.946712 
1201.254276  	96.958528 
1202.691183  	96.964229 
1204.128090  	96.946760 
1205.564997  	96.941966 
1207.001904  	96.948672 
1208.438811  	96.944915 
1209.875718  	96.959727 
1211.312625  	96.973753 
1212.749532  	96.951727 
1214.186439  	96.934369 
1215.623346  	96.943167 
1217.060253  	96.946843 
1218.497160  	96.934261 
1219.934068  	96.927841 
1221.370975  	96.937840 
1222.807882  	96.938810 
1224.244789  	96.923082 
1225.681696  	96.913124 
1227.118603  	96.915908 
1228.555510  	96.931028 
1229.992417  	96.948940 
1231.429324  	96.951879 
1232.866231  	96.952087 
1234.303138  	96.960807 
1235.740045  	96.953546 
1237.176952  	96.926108 
1238.613859  	96.919168 
1240.050766  	96.942585 
1241.487673  	96.950918 
1242.924580  	96.934075 
1244.361487  	96.929288 
1245.798394  	96.933742 
1247.235301  	96.920395 
1248.672208  	96.901277 
1250.109115  	96.894132 
1251.546022  	96.890357 
1252.982929  	96.888381 
1254.419836  	96.890923 
1255.856743  	96.879069 
1257.293650  	96.852575 
1258.730557  	96.837217 
1260.167464  	96.832966 
1261.604371  	96.840804 
1263.041278  	96.871693 
1264.478185  	96.892205 
1265.915092  	96.873207 
1267.351999  	96.844123 
1268.788907  	96.835770 
1270.225814  	96.834959 
1271.662721  	96.819912 
1273.099628  	96.806168 
1274.536535  	96.803648 
1275.973442  	96.790416 
1277.410349  	96.779220 
1278.847256  	96.780347 
1280.284163  	96.767990 
1281.721070  	96.764724 
1283.157977  	96.783702 
1284.594884  	96.782999 
1286.031791  	96.775913 
1287.468698  	96.795034 
1288.905605  	96.816454 
1290.342512  	96.816088 
1291.779419  	96.803064 
1293.216326  	96.805902 
1294.653233  	96.823327 
1296.090140  	96.818991 
1297.527047  	96.804482 
1298.963954  	96.812624 
1300.400861  	96.831242 
1301.837768  	96.841585 
1303.274675  	96.843012 
1304.711582  	96.850640 
1306.148489  	96.858680 
1307.585396  	96.856478 
1309.022303  	96.846744 
1310.459210  	96.860435 
1311.896117  	96.858050 
1313.333024  	96.856665 
1314.769931  	96.849037 
1316.206838  	96.856006 
1317.643745  	96.851058 
1319.080653  	96.851246 
1320.517560  	96.842505 
1321.954467  	96.847652 
1323.391374  	96.866460 
1324.828281  	96.861080 
1326.265188  	96.850398 
1327.702095  	96.855611 
1329.139002  	96.859379 
1330.575909  	96.850690 
1332.012816  	96.847011 
1333.449723  	96.845914 
1334.886630  	96.834733 
1336.323537  	96.821002 
1337.760444  	96.809339 
1339.197351  	96.789690 
1340.634258  	96.778242 
1342.071165  	96.791119 
1343.508072  	96.806597 
1344.944979  	96.811044 
1346.381886  	96.803510 
1347.818793  	96.783233 
1349.255700  	96.767883 
1350.692607  	96.772780 
1352.129514  	96.760266 
1353.566421  	96.738147 
1355.003328  	96.717637 
1356.440235  	96.704132 
1357.877142  	96.689265 
1359.314049  	96.684314 
1360.750956  	96.682643 
1362.187863  	96.668864 
1363.624770  	96.630869 
1365.061677  	96.615394 
1366.498584  	96.613830 
1367.935491  	96.582419 
1369.372399  	96.548398 
1370.809306  	96.533557 
1372.246213  	96.519254 
1373.683120  	96.482479 
1375.120027  	96.428817 
1376.556934  	96.414496 
1377.993841  	96.392307 
1379.430748  	96.365632 
1380.867655  	96.333707 
1382.304562  	96.325434 
1383.741469  	96.316831 
1385.178376  	96.308043 
1386.615283  	96.292895 
1388.052190  	96.251463 
1389.489097  	96.235328 
1390.926004  	96.232827 
1392.362911  	96.256081 
1393.799818  	96.262519 
1395.236725  	96.265612 
1396.673632  	96.288376 
1398.110539  	96.325625 
1399.547446  	96.338442 
1400.984353  	96.345053 
1402.421260  	96.382230 
1403.858167  	96.405552 
1405.295074  	96.401445 
1406.731981  	96.412966 
1408.168888  	96.429447 
1409.605795  	96.441342 
1411.042702  	96.447831 
1412.479609  	96.466778 
1413.916516  	96.490931 
1415.353423  	96.508073 
1416.790330  	96.530435 
1418.227238  	96.561911 
1419.664145  	96.536400 
1421.101052  	96.533868 
1422.537959  	96.593768 
1423.974866  	96.595565 
1425.411773  	96.575210 
1426.848680  	96.606023 
1428.285587  	96.627282 
1429.722494  	96.626346 
1431.159401  	96.620728 
1432.596308  	96.615608 
1434.033215  	96.647799 
1435.470122  	96.666854 
1436.907029  	96.627760 
1438.343936  	96.616040 
1439.780843  	96.667538 
1441.217750  	96.675027 
1442.654657  	96.661652 
1444.091564  	96.662213 
1445.528471  	96.676080 
1446.965378  	96.669141 
1448.402285  	96.650472 
1449.839192  	96.662913 
1451.276099  	96.682390 
1452.713006  	96.684194 
1454.149913  	96.695177 
1455.586820  	96.721028 
1457.023727  	96.695468 
1458.460634  	96.638316 
1459.897541  	96.663402 
1461.334448  	96.685962 
1462.771355  	96.723646 
1464.208262  	96.739100 
1465.645169  	96.674854 
1467.082076  	96.663747 
1468.518984  	96.687214 
1469.955891  	96.713471 
1471.392798  	96.724427 
1472.829705  	96.673498 
1474.266612  	96.643258 
1475.703519  	96.674439 
1477.140426  	96.660339 
1478.577333  	96.665952 
1480.014240  	96.691553 
1481.451147  	96.682613 
1482.888054  	96.672813 
1484.324961  	96.679389 
1485.761868  	96.676378 
1487.198775  	96.664636 
1488.635682  	96.644785 
1490.072589  	96.612062 
1491.509496  	96.568168 
1492.946403  	96.577940 
1494.383310  	96.619085 
1495.820217  	96.605336 
1497.257124  	96.553677 
1498.694031  	96.562880 
1500.130938  	96.552430 
1501.567845  	96.535405 
1503.004752  	96.554217 
1504.441659  	96.571509 
1505.878566  	96.568048 
1507.315473  	96.457710 
1508.752380  	96.377532 
1510.189287  	96.438146 
1511.626194  	96.427890 
1513.063101  	96.413077 
1514.500008  	96.450846 
1515.936915  	96.455508 
1517.373822  	96.402138 
1518.810730  	96.407910 
1520.247637  	96.429548 
1521.684544  	96.378506 
1523.121451  	96.319186 
1524.558358  	96.342607 
1525.995265  	96.306100 
1527.432172  	96.252324 
1528.869079  	96.251053 
1530.305986  	96.243924 
1531.742893  	96.229042 
1533.179800  	96.206807 
1534.616707  	96.083987 
1536.053614  	96.071294 
1537.490521  	96.108663 
1538.927428  	96.087051 
1540.364335  	95.979532 
1541.801242  	95.883964 
1543.238149  	95.860510 
1544.675056  	95.828384 
1546.111963  	95.754240 
1547.548870  	95.738362 
1548.985777  	95.727594 
1550.422684  	95.635159 
1551.859591  	95.607512 
1553.296498  	95.603209 
1554.733405  	95.512460 
1556.170312  	95.466432 
1557.607219  	95.500110 
1559.044126  	95.458184 
1560.481033  	95.213508 
1561.917940  	95.237603 
1563.354847  	95.265232 
1564.791754  	95.246804 
1566.228661  	95.157936 
1567.665569  	95.177066 
1569.102476  	95.176331 
1570.539383  	94.991027 
1571.976290  	94.968233 
1573.413197  	95.042060 
1574.850104  	95.053351 
1576.287011  	95.010416 
1577.723918  	94.911640 
1579.160825  	94.915407 
1580.597732  	94.917412 
1582.034639  	94.870896 
1583.471546  	94.847954 
1584.908453  	94.851005 
1586.345360  	94.835897 
1587.782267  	94.836643 
1589.219174  	94.804138 
1590.656081  	94.767096 
1592.092988  	94.761716 
1593.529895  	94.734601 
1594.966802  	94.702446 
1596.403709  	94.670062 
1597.840616  	94.639075 
1599.277523  	94.634770 
1600.714430  	94.591373 
1602.151337  	94.531682 
1603.588244  	94.477738 
1605.025151  	94.409639 
1606.462058  	94.362751 
1607.898965  	94.306008 
1609.335872  	94.233492 
1610.772779  	94.171017 
1612.209686  	94.103804 
1613.646593  	94.049139 
1615.083500  	94.018207 
1616.520407  	93.917973 
1617.957315  	93.774915 
1619.394222  	93.750508 
1620.831129  	93.720717 
1622.268036  	93.676001 
1623.704943  	93.547198 
1625.141850  	93.437801 
1626.578757  	93.428519 
1628.015664  	93.365141 
1629.452571  	93.263358 
1630.889478  	93.225506 
1632.326385  	93.218862 
1633.763292  	93.262110 
1635.200199  	93.301545 
1636.637106  	93.079636 
1638.074013  	93.082505 
1639.510920  	93.155979 
1640.947827  	93.138169 
1642.384734  	93.167878 
1643.821641  	93.221497 
1645.258548  	93.288870 
1646.695455  	93.338980 
1648.132362  	93.227520 
1649.569269  	93.349627 
1651.006176  	93.530094 
1652.443083  	93.592554 
1653.879990  	93.412120 
1655.316897  	93.475565 
1656.753804  	93.669171 
1658.190711  	93.794476 
1659.627618  	93.844945 
1661.064525  	93.928285 
1662.501432  	94.026033 
1663.938339  	94.070940 
1665.375246  	94.166904 
1666.812154  	94.270608 
1668.249061  	94.356579 
1669.685968  	94.433570 
1671.122875  	94.472724 
1672.559782  	94.575710 
1673.996689  	94.695852 
1675.433596  	94.720788 
1676.870503  	94.767997 
1678.307410  	94.914170 
1679.744317  	95.006751 
1681.181224  	95.109383 
1682.618131  	95.228969 
1684.055038  	95.280815 
1685.491945  	95.265536 
1686.928852  	95.390601 
1688.365759  	95.502917 
1689.802666  	95.564178 
1691.239573  	95.623171 
1692.676480  	95.715459 
1694.113387  	95.812672 
1695.550294  	95.867389 
1696.987201  	95.907308 
1698.424108  	96.023038 
1699.861015  	96.121933 
1701.297922  	96.029368 
1702.734829  	96.132258 
1704.171736  	96.268390 
1705.608643  	96.293227 
1707.045550  	96.302367 
1708.482457  	96.377259 
1709.919364  	96.423942 
1711.356271  	96.489409 
1712.793178  	96.564189 
1714.230085  	96.593047 
1715.666992  	96.661560 
1717.103900  	96.720393 
1718.540807  	96.697921 
1719.977714  	96.754989 
1721.414621  	96.831038 
1722.851528  	96.884410 
1724.288435  	96.931582 
1725.725342  	96.973032 
1727.162249  	97.030652 
1728.599156  	97.065643 
1730.036063  	97.057889 
1731.472970  	97.089883 
1732.909877  	97.144900 
1734.346784  	97.132491 
1735.783691  	97.079703 
1737.220598  	97.180602 
1738.657505  	97.239470 
1740.094412  	97.205846 
1741.531319  	97.211927 
1742.968226  	97.274509 
1744.405133  	97.278747 
1745.842040  	97.299162 
1747.278947  	97.333633 
1748.715854  	97.335774 
1750.152761  	97.343928 
1751.589668  	97.341376 
1753.026575  	97.327040 
1754.463482  	97.392358 
1755.900389  	97.447375 
1757.337296  	97.397821 
1758.774203  	97.418102 
1760.211110  	97.478307 
1761.648017  	97.475722 
1763.084924  	97.413470 
1764.521831  	97.426290 
1765.958738  	97.497638 
1767.395646  	97.507331 
1768.832553  	97.488111 
1770.269460  	97.528032 
1771.706367  	97.548156 
1773.143274  	97.497329 
1774.580181  	97.516450 
1776.017088  	97.555748 
1777.453995  	97.568479 
1778.890902  	97.577329 
1780.327809  	97.559378 
1781.764716  	97.555258 
1783.201623  	97.570397 
1784.638530  	97.598940 
1786.075437  	97.597874 
1787.512344  	97.602286 
1788.949251  	97.612615 
1790.386158  	97.626420 
1791.823065  	97.615514 
1793.259972  	97.588108 
1794.696879  	97.598745 
1796.133786  	97.619749 
1797.570693  	97.633972 
1799.007600  	97.665070 
1800.444507  	97.684062 
1801.881414  	97.667899 
1803.318321  	97.660577 
1804.755228  	97.691566 
1806.192135  	97.695926 
1807.629042  	97.673541 
1809.065949  	97.667879 
1810.502856  	97.669565 
1811.939763  	97.677966 
1813.376670  	97.699219 
1814.813577  	97.727862 
1816.250485  	97.730012 
1817.687392  	97.700285 
1819.124299  	97.701379 
1820.561206  	97.694314 
1821.998113  	97.691840 
1823.435020  	97.707028 
1824.871927  	97.705385 
1826.308834  	97.696245 
1827.745741  	97.731427 
1829.182648  	97.717447 
1830.619555  	97.666675 
1832.056462  	97.691301 
1833.493369  	97.724625 
1834.930276  	97.738502 
1836.367183  	97.728821 
1837.804090  	97.707726 
1839.240997  	97.697018 
1840.677904  	97.724675 
1842.114811  	97.751340 
1843.551718  	97.724673 
1844.988625  	97.652650 
1846.425532  	97.684800 
1847.862439  	97.726861 
1849.299346  	97.707898 
1850.736253  	97.716047 
1852.173160  	97.729542 
1853.610067  	97.698321 
1855.046974  	97.711820 
1856.483881  	97.762645 
1857.920788  	97.784537 
1859.357695  	97.747356 
1860.794602  	97.659575 
1862.231509  	97.628805 
1863.668416  	97.683754 
1865.105323  	97.740952 
1866.542231  	97.762795 
1867.979138  	97.737948 
1869.416045  	97.708979 
1870.852952  	97.726613 
1872.289859  	97.764425 
1873.726766  	97.783124 
1875.163673  	97.756021 
1876.600580  	97.744284 
1878.037487  	97.767342 
1879.474394  	97.753283 
1880.911301  	97.742728 
1882.348208  	97.741107 
1883.785115  	97.703552 
1885.222022  	97.694135 
1886.658929  	97.711815 
1888.095836  	97.717037 
1889.532743  	97.714011 
1890.969650  	97.730109 
1892.406557  	97.780557 
1893.843464  	97.800982 
1895.280371  	97.780546 
1896.717278  	97.774798 
1898.154185  	97.791470 
1899.591092  	97.771184 
1901.027999  	97.727211 
1902.464906  	97.747464 
1903.901813  	97.785532 
1905.338720  	97.748329 
1906.775627  	97.680987 
1908.212534  	97.745126 
1909.649441  	97.758702 
1911.086348  	97.650732 
1912.523255  	97.719435 
1913.960162  	97.829202 
1915.397069  	97.806280 
1916.833977  	97.773356 
1918.270884  	97.706919 
1919.707791  	97.727900 
1921.144698  	97.836348 
1922.581605  	97.832743 
1924.018512  	97.799237 
1925.455419  	97.808098 
1926.892326  	97.773704 
1928.329233  	97.764016 
1929.766140  	97.784264 
1931.203047  	97.788723 
1932.639954  	97.781557 
1934.076861  	97.764514 
1935.513768  	97.776885 
1936.950675  	97.811782 
1938.387582  	97.825573 
1939.824489  	97.832286 
1941.261396  	97.745540 
1942.698303  	97.588896 
1944.135210  	97.625066 
1945.572117  	97.780471 
1947.009024  	97.803008 
1948.445931  	97.871808 
1949.882838  	97.682390 
1951.319745  	97.692180 
1952.756652  	97.747046 
1954.193559  	97.624127 
1955.630466  	97.678508 
1957.067373  	97.897748 
1958.504280  	97.894239 
1959.941187  	97.728085 
1961.378094  	97.626657 
1962.815001  	97.637047 
1964.251908  	97.693521 
1965.688816  	97.656163 
1967.125723  	97.570521 
1968.562630  	97.581850 
1969.999537  	97.707005 
1971.436444  	97.790343 
1972.873351  	97.645494 
1974.310258  	97.624584 
1975.747165  	97.880574 
1977.184072  	97.899956 
1978.620979  	97.668442 
1980.057886  	97.429685 
1981.494793  	97.196513 
1982.931700  	97.240952 
1984.368607  	97.485664 
1985.805514  	97.544799 
1987.242421  	97.550621 
1988.679328  	97.607655 
1990.116235  	97.628404 
1991.553142  	97.597027 
1992.990049  	97.448103 
1994.426956  	97.442898 
1995.863863  	97.688893 
1997.300770  	97.765719 
1998.737677  	97.675538 
2000.174584  	97.767003 
2001.611491  	97.829599 
2003.048398  	97.756172 
2004.485305  	97.791839 
2005.922212  	97.758744 
2007.359119  	97.572431 
2008.796026  	97.528714 
2010.232933  	97.573862 
2011.669840  	97.498858 
2013.106747  	97.449837 
2014.543654  	97.556478 
2015.980562  	97.561142 
2017.417469  	97.457631 
2018.854376  	97.476569 
2020.291283  	97.392398 
2021.728190  	97.284437 
2023.165097  	97.464620 
2024.602004  	97.642347 
2026.038911  	97.663761 
2027.475818  	97.571696 
2028.912725  	97.349977 
2030.349632  	97.503640 
2031.786539  	97.874073 
2033.223446  	97.757402 
2034.660353  	97.557880 
2036.097260  	97.638899 
2037.534167  	97.638965 
2038.971074  	97.584290 
2040.407981  	97.496678 
2041.844888  	97.451467 
2043.281795  	97.624196 
2044.718702  	97.679730 
2046.155609  	97.508973 
2047.592516  	97.475491 
2049.029423  	97.481346 
2050.466330  	97.321893 
2051.903237  	97.304616 
2053.340144  	97.520186 
2054.777051  	97.580746 
2056.213958  	97.452804 
2057.650865  	97.438342 
2059.087772  	97.464787 
2060.524679  	97.513915 
2061.961586  	97.566505 
2063.398493  	97.416920 
2064.835401  	97.401458 
2066.272308  	97.650524 
2067.709215  	97.602188 
2069.146122  	97.422540 
2070.583029  	97.480231 
2072.019936  	97.509031 
2073.456843  	97.500336 
2074.893750  	97.523128 
2076.330657  	97.426171 
2077.767564  	97.351592 
2079.204471  	97.370723 
2080.641378  	97.389127 
2082.078285  	97.441662 
2083.515192  	97.538175 
2084.952099  	97.619234 
2086.389006  	97.578496 
2087.825913  	97.423228 
2089.262820  	97.367065 
2090.699727  	97.435096 
2092.136634  	97.542018 
2093.573541  	97.634994 
2095.010448  	97.586863 
2096.447355  	97.507047 
2097.884262  	97.558398 
2099.321169  	97.619262 
2100.758076  	97.630903 
2102.194983  	97.582009 
2103.631890  	97.488882 
2105.068797  	97.486997 
2106.505704  	97.482831 
2107.942611  	97.384845 
2109.379518  	97.362535 
2110.816425  	97.425406 
2112.253332  	97.446034 
2113.690239  	97.459924 
2115.127147  	97.520123 
2116.564054  	97.616192 
2118.000961  	97.705434 
2119.437868  	97.673331 
2120.874775  	97.540017 
2122.311682  	97.539895 
2123.748589  	97.630095 
2125.185496  	97.535080 
2126.622403  	97.478599 
2128.059310  	97.675188 
2129.496217  	97.756399 
2130.933124  	97.705885 
2132.370031  	97.814383 
2133.806938  	97.876278 
2135.243845  	97.780628 
2136.680752  	97.650057 
2138.117659  	97.510706 
2139.554566  	97.576919 
2140.991473  	97.801444 
2142.428380  	97.856125 
2143.865287  	97.871874 
2145.302194  	98.003458 
2146.739101  	98.034271 
2148.176008  	97.728299 
2149.612915  	97.281969 
2151.049822  	97.307722 
2152.486729  	97.775066 
2153.923636  	97.905016 
2155.360543  	97.719880 
2156.797450  	97.840054 
2158.234357  	97.985899 
2159.671264  	97.767701 
2161.108171  	97.784251 
2162.545078  	97.891109 
2163.981985  	97.591794 
2165.418893  	97.445570 
2166.855800  	97.604659 
2168.292707  	97.593841 
2169.729614  	97.506074 
2171.166521  	97.482219 
2172.603428  	97.592883 
2174.040335  	97.825515 
2175.477242  	97.786684 
2176.914149  	97.592560 
2178.351056  	97.574748 
2179.787963  	97.529783 
2181.224870  	97.591234 
2182.661777  	97.769847 
2184.098684  	97.752832 
2185.535591  	97.716229 
2186.972498  	97.563788 
2188.409405  	97.297010 
2189.846312  	97.453845 
2191.283219  	97.813205 
2192.720126  	97.821550 
2194.157033  	97.638369 
2195.593940  	97.505900 
2197.030847  	97.534998 
2198.467754  	97.632488 
2199.904661  	97.577645 
2201.341568  	97.451933 
2202.778475  	97.438197 
2204.215382  	97.545321 
2205.652289  	97.669088 
2207.089196  	97.693516 
2208.526103  	97.625754 
2209.963010  	97.566541 
2211.399917  	97.639315 
2212.836824  	97.741196 
2214.273732  	97.687057 
2215.710639  	97.671434 
2217.147546  	97.735971 
2218.584453  	97.664370 
2220.021360  	97.601347 
2221.458267  	97.614261 
2222.895174  	97.593085 
2224.332081  	97.605892 
2225.768988  	97.602471 
2227.205895  	97.605973 
2228.642802  	97.694505 
2230.079709  	97.715185 
2231.516616  	97.653486 
2232.953523  	97.607730 
2234.390430  	97.685682 
2235.827337  	97.887922 
2237.264244  	97.856047 
2238.701151  	97.656450 
2240.138058  	97.698823 
2241.574965  	97.768721 
2243.011872  	97.726457 
2244.448779  	97.746666 
2245.885686  	97.710971 
2247.322593  	97.651032 
2248.759500  	97.678334 
2250.196407  	97.675609 
2251.633314  	97.665945 
2253.070221  	97.683649 
2254.507128  	97.701182 
2255.944035  	97.708728 
2257.380942  	97.673890 
2258.817849  	97.631401 
2260.254756  	97.632594 
2261.691663  	97.674281 
2263.128570  	97.694208 
2264.565478  	97.651504 
2266.002385  	97.627050 
2267.439292  	97.684673 
2268.876199  	97.684049 
2270.313106  	97.647588 
2271.750013  	97.653889 
2273.186920  	97.656148 
2274.623827  	97.647933 
2276.060734  	97.645322 
2277.497641  	97.596262 
2278.934548  	97.585166 
2280.371455  	97.599449 
2281.808362  	97.591013 
2283.245269  	97.597733 
2284.682176  	97.598287 
2286.119083  	97.590440 
2287.555990  	97.608819 
2288.992897  	97.635518 
2290.429804  	97.621980 
2291.866711  	97.606870 
2293.303618  	97.598914 
2294.740525  	97.596713 
2296.177432  	97.618837 
2297.614339  	97.633228 
2299.051246  	97.573461 
2300.488153  	97.573548 
2301.925060  	97.515475 
2303.361967  	97.526969 
2304.798874  	97.631072 
2306.235781  	97.661226 
2307.672688  	97.610045 
2309.109595  	97.606012 
2310.546502  	97.596467 
2311.983409  	97.555227 
2313.420317  	97.553666 
2314.857224  	97.553155 
2316.294131  	97.508426 
2317.731038  	97.447956 
2319.167945  	97.447286 
2320.604852  	97.509808 
2322.041759  	97.449233 
2323.478666  	97.294465 
2324.915573  	97.347678 
2326.352480  	97.556010 
2327.789387  	97.649717 
2329.226294  	97.627201 
2330.663201  	97.630633 
2332.100108  	97.663003 
2333.537015  	97.687053 
2334.973922  	97.715337 
2336.410829  	97.712814 
2337.847736  	97.686326 
2339.284643  	97.695122 
2340.721550  	97.656626 
2342.158457  	97.571589 
2343.595364  	97.602064 
2345.032271  	97.667347 
2346.469178  	97.643670 
2347.906085  	97.638385 
2349.342992  	97.676886 
2350.779899  	97.703449 
2352.216806  	97.705224 
2353.653713  	97.696286 
2355.090620  	97.688998 
2356.527527  	97.664812 
2357.964434  	97.701334 
2359.401341  	97.806832 
2360.838248  	97.795480 
2362.275155  	97.740654 
2363.712063  	97.794959 
2365.148970  	97.869038 
2366.585877  	97.915250 
2368.022784  	97.890974 
2369.459691  	97.827180 
2370.896598  	97.827004 
2372.333505  	97.803779 
2373.770412  	97.791732 
2375.207319  	97.877692 
2376.644226  	97.915450 
2378.081133  	97.875462 
2379.518040  	97.856825 
2380.954947  	97.852538 
2382.391854  	97.853662 
2383.828761  	97.858605 
2385.265668  	97.859725 
2386.702575  	97.865085 
2388.139482  	97.862697 
2389.576389  	97.874713 
2391.013296  	97.907637 
2392.450203  	97.909343 
2393.887110  	97.896439 
2395.324017  	97.878678 
2396.760924  	97.837878 
2398.197831  	97.831028 
2399.634738  	97.869848 
2401.071645  	97.904262 
2402.508552  	97.920934 
2403.945459  	97.916119 
2405.382366  	97.899930 
2406.819273  	97.885635 
2408.256180  	97.884650 
2409.693087  	97.908948 
2411.129994  	97.933164 
2412.566901  	97.940566 
2414.003809  	97.927638 
2415.440716  	97.897335 
2416.877623  	97.887684 
2418.314530  	97.887932 
2419.751437  	97.877789 
2421.188344  	97.872908 
2422.625251  	97.859347 
2424.062158  	97.864540 
2425.499065  	97.889741 
2426.935972  	97.885733 
2428.372879  	97.914535 
2429.809786  	97.963855 
2431.246693  	97.930812 
2432.683600  	97.895014 
2434.120507  	97.919208 
2435.557414  	97.938603 
2436.994321  	97.946623 
2438.431228  	97.938045 
2439.868135  	97.903466 
2441.305042  	97.884260 
2442.741949  	97.909619 
2444.178856  	97.957103 
2445.615763  	97.944975 
2447.052670  	97.875830 
2448.489577  	97.867693 
2449.926484  	97.907289 
2451.363391  	97.885823 
2452.800298  	97.832362 
2454.237205  	97.841849 
2455.674112  	97.892752 
2457.111019  	97.923428 
2458.547926  	97.952088 
2459.984833  	97.960370 
2461.421740  	97.923624 
2462.858648  	97.918596 
2464.295555  	97.925567 
2465.732462  	97.892611 
2467.169369  	97.889830 
2468.606276  	97.895888 
2470.043183  	97.882305 
2471.480090  	97.913344 
2472.916997  	97.953819 
2474.353904  	97.971020 
2475.790811  	97.966261 
2477.227718  	97.926169 
2478.664625  	97.928069 
2480.101532  	97.956737 
2481.538439  	97.942508 
2482.975346  	97.953259 
2484.412253  	97.969920 
2485.849160  	97.926896 
2487.286067  	97.876549 
2488.722974  	97.871887 
2490.159881  	97.932269 
2491.596788  	97.977972 
2493.033695  	97.959263 
2494.470602  	97.973462 
2495.907509  	97.974308 
2497.344416  	97.919431 
2498.781323  	97.929100 
2500.218230  	97.956384 
2501.655137  	97.956296 
2503.092044  	97.999014 
2504.528951  	98.011502 
2505.965858  	97.973805 
2507.402765  	97.950124 
2508.839672  	97.929195 
2510.276579  	97.947262 
2511.713486  	97.980064 
2513.150394  	97.955382 
2514.587301  	97.948694 
2516.024208  	97.982019 
2517.461115  	97.979300 
2518.898022  	97.945518 
2520.334929  	97.920886 
2521.771836  	97.942476 
2523.208743  	97.995156 
2524.645650  	97.988442 
2526.082557  	97.933068 
2527.519464  	97.934171 
2528.956371  	97.976990 
2530.393278  	97.964400 
2531.830185  	97.925635 
2533.267092  	97.943485 
2534.703999  	97.963042 
2536.140906  	97.922685 
2537.577813  	97.893027 
2539.014720  	97.915633 
2540.451627  	97.929757 
2541.888534  	97.911805 
2543.325441  	97.910500 
2544.762348  	97.934082 
2546.199255  	97.942250 
2547.636162  	97.935399 
2549.073069  	97.931021 
2550.509976  	97.929478 
2551.946883  	97.934404 
2553.383790  	97.935173 
2554.820697  	97.936008 
2556.257604  	97.950402 
2557.694511  	97.959798 
2559.131418  	97.960234 
2560.568325  	97.956344 
2562.005232  	97.956148 
2563.442140  	97.970319 
2564.879047  	97.955874 
2566.315954  	97.926190 
2567.752861  	97.940875 
2569.189768  	97.952079 
2570.626675  	97.950768 
2572.063582  	97.974419 
2573.500489  	97.969324 
2574.937396  	97.960335 
2576.374303  	98.006107 
2577.811210  	98.025070 
2579.248117  	97.977984 
2580.685024  	97.940247 
2582.121931  	97.956085 
2583.558838  	97.981012 
2584.995745  	97.958203 
2586.432652  	97.931556 
2587.869559  	97.945642 
2589.306466  	97.955545 
2590.743373  	97.952053 
2592.180280  	97.943420 
2593.617187  	97.905325 
2595.054094  	97.872847 
2596.491001  	97.900740 
2597.927908  	97.968804 
2599.364815  	98.012530 
2600.801722  	97.996945 
2602.238629  	97.950577 
2603.675536  	97.922468 
2605.112443  	97.923673 
2606.549350  	97.924359 
2607.986257  	97.924075 
2609.423164  	97.942394 
2610.860071  	97.934091 
2612.296979  	97.896300 
2613.733886  	97.901484 
2615.170793  	97.924673 
2616.607700  	97.919055 
2618.044607  	97.905341 
2619.481514  	97.881665 
2620.918421  	97.873880 
2622.355328  	97.896700 
2623.792235  	97.893778 
2625.229142  	97.876417 
2626.666049  	97.876196 
2628.102956  	97.865624 
2629.539863  	97.851911 
2630.976770  	97.852626 
2632.413677  	97.866308 
2633.850584  	97.880132 
2635.287491  	97.861476 
2636.724398  	97.838879 
2638.161305  	97.847355 
2639.598212  	97.846833 
2641.035119  	97.838698 
2642.472026  	97.851345 
2643.908933  	97.854938 
2645.345840  	97.841823 
2646.782747  	97.837983 
2648.219654  	97.843655 
2649.656561  	97.851312 
2651.093468  	97.856021 
2652.530375  	97.845246 
2653.967282  	97.821317 
2655.404189  	97.808643 
2656.841096  	97.815068 
2658.278003  	97.832041 
2659.714910  	97.857885 
2661.151817  	97.873819 
2662.588725  	97.872087 
2664.025632  	97.880807 
2665.462539  	97.893721 
2666.899446  	97.891318 
2668.336353  	97.892586 
2669.773260  	97.897588 
2671.210167  	97.893377 
2672.647074  	97.887450 
2674.083981  	97.879894 
2675.520888  	97.873349 
2676.957795  	97.873125 
2678.394702  	97.875610 
2679.831609  	97.879765 
2681.268516  	97.872587 
2682.705423  	97.849844 
2684.142330  	97.837372 
2685.579237  	97.846727 
2687.016144  	97.865921 
2688.453051  	97.877755 
2689.889958  	97.866177 
2691.326865  	97.845476 
2692.763772  	97.845131 
2694.200679  	97.853071 
2695.637586  	97.841112 
2697.074493  	97.827979 
2698.511400  	97.834445 
2699.948307  	97.836728 
2701.385214  	97.831578 
2702.822121  	97.834174 
2704.259028  	97.827620 
2705.695935  	97.818809 
2707.132842  	97.826728 
2708.569749  	97.821212 
2710.006656  	97.798200 
2711.443564  	97.797352 
2712.880471  	97.811727 
2714.317378  	97.812915 
2715.754285  	97.811237 
2717.191192  	97.814216 
2718.628099  	97.810141 
2720.065006  	97.802816 
2721.501913  	97.792346 
2722.938820  	97.781071 
2724.375727  	97.794387 
2725.812634  	97.809244 
2727.249541  	97.792630 
2728.686448  	97.784374 
2730.123355  	97.784257 
2731.560262  	97.766819 
2732.997169  	97.771306 
2734.434076  	97.774939 
2735.870983  	97.748673 
2737.307890  	97.762418 
2738.744797  	97.801968 
2740.181704  	97.796748 
2741.618611  	97.777141 
2743.055518  	97.772917 
2744.492425  	97.775968 
2745.929332  	97.781849 
2747.366239  	97.772432 
2748.803146  	97.749280 
2750.240053  	97.727537 
2751.676960  	97.722929 
2753.113867  	97.744538 
2754.550774  	97.752941 
2755.987681  	97.736365 
2757.424588  	97.736734 
2758.861495  	97.747289 
2760.298402  	97.744844 
2761.735310  	97.740821 
2763.172217  	97.740593 
2764.609124  	97.734351 
2766.046031  	97.709562 
2767.482938  	97.682255 
2768.919845  	97.678099 
2770.356752  	97.682926 
2771.793659  	97.685513 
2773.230566  	97.689881 
2774.667473  	97.691377 
2776.104380  	97.695473 
2777.541287  	97.693923 
2778.978194  	97.678096 
2780.415101  	97.669491 
2781.852008  	97.671674 
2783.288915  	97.673020 
2784.725822  	97.666298 
2786.162729  	97.646395 
2787.599636  	97.636195 
2789.036543  	97.643972 
2790.473450  	97.647181 
2791.910357  	97.644402 
2793.347264  	97.634401 
2794.784171  	97.621710 
2796.221078  	97.624570 
2797.657985  	97.618473 
2799.094892  	97.589388 
2800.531799  	97.580511 
2801.968706  	97.603236 
2803.405613  	97.615052 
2804.842520  	97.591768 
2806.279427  	97.564964 
2807.716334  	97.569927 
2809.153241  	97.581900 
2810.590148  	97.573865 
2812.027056  	97.560315 
2813.463963  	97.544777 
2814.900870  	97.535354 
2816.337777  	97.548111 
2817.774684  	97.554230 
2819.211591  	97.533990 
2820.648498  	97.515365 
2822.085405  	97.511045 
2823.522312  	97.512346 
2824.959219  	97.513812 
2826.396126  	97.507620 
2827.833033  	97.495282 
2829.269940  	97.480872 
2830.706847  	97.461414 
2832.143754  	97.451573 
2833.580661  	97.470247 
2835.017568  	97.496016 
2836.454475  	97.488702 
2837.891382  	97.459922 
2839.328289  	97.451743 
2840.765196  	97.447600 
2842.202103  	97.417990 
2843.639010  	97.400146 
2845.075917  	97.417713 
2846.512824  	97.439166 
2847.949731  	97.437628 
2849.386638  	97.401079 
2850.823545  	97.357676 
2852.260452  	97.355270 
2853.697359  	97.369529 
2855.134266  	97.360515 
2856.571173  	97.341751 
2858.008080  	97.333324 
2859.444987  	97.353381 
2860.881895  	97.379999 
2862.318802  	97.353408 
2863.755709  	97.306228 
2865.192616  	97.306301 
2866.629523  	97.317505 
2868.066430  	97.310816 
2869.503337  	97.322252 
2870.940244  	97.326704 
2872.377151  	97.286898 
2873.814058  	97.261023 
2875.250965  	97.276849 
2876.687872  	97.271087 
2878.124779  	97.239652 
2879.561686  	97.228682 
2880.998593  	97.226387 
2882.435500  	97.219705 
2883.872407  	97.215681 
2885.309314  	97.201576 
2886.746221  	97.182253 
2888.183128  	97.168512 
2889.620035  	97.156114 
2891.056942  	97.150645 
2892.493849  	97.145171 
2893.930756  	97.130644 
2895.367663  	97.113095 
2896.804570  	97.084288 
2898.241477  	97.052565 
2899.678384  	97.042445 
2901.115291  	97.040742 
2902.552198  	97.032629 
2903.989105  	97.030447 
2905.426012  	97.028433 
2906.862919  	97.006135 
2908.299826  	96.977959 
2909.736733  	96.969833 
2911.173641  	96.960232 
2912.610548  	96.935809 
2914.047455  	96.930251 
2915.484362  	96.932326 
2916.921269  	96.904841 
2918.358176  	96.868354 
2919.795083  	96.845451 
2921.231990  	96.837587 
2922.668897  	96.843754 
2924.105804  	96.831825 
2925.542711  	96.790989 
2926.979618  	96.757939 
2928.416525  	96.743714 
2929.853432  	96.739850 
2931.290339  	96.744907 
2932.727246  	96.746397 
2934.164153  	96.737079 
2935.601060  	96.709625 
2937.037967  	96.664802 
2938.474874  	96.643999 
2939.911781  	96.653438 
2941.348688  	96.649078 
2942.785595  	96.638011 
2944.222502  	96.630445 
2945.659409  	96.606979 
2947.096316  	96.594599 
2948.533223  	96.592237 
2949.970130  	96.563478 
2951.407037  	96.541163 
2952.843944  	96.530699 
2954.280851  	96.496527 
2955.717758  	96.475738 
2957.154665  	96.485373 
2958.591572  	96.493025 
2960.028479  	96.492933 
2961.465387  	96.466853 
2962.902294  	96.421008 
2964.339201  	96.406014 
2965.776108  	96.412434 
2967.213015  	96.400334 
2968.649922  	96.378088 
2970.086829  	96.364595 
2971.523736  	96.342910 
2972.960643  	96.298920 
2974.397550  	96.266953 
2975.834457  	96.260194 
2977.271364  	96.251312 
2978.708271  	96.248662 
2980.145178  	96.250988 
2981.582085  	96.223786 
2983.018992  	96.161051 
2984.455899  	96.093109 
2985.892806  	96.079821 
2987.329713  	96.108770 
2988.766620  	96.078596 
2990.203527  	96.010944 
2991.640434  	95.996405 
2993.077341  	95.998073 
2994.514248  	95.965948 
2995.951155  	95.920565 
2997.388062  	95.880775 
2998.824969  	95.847877 
3000.261876  	95.811004 
3001.698783  	95.777482 
3003.135690  	95.757256 
3004.572597  	95.719723 
3006.009504  	95.653399 
3007.446411  	95.595393 
3008.883318  	95.572508 
3010.320226  	95.571814 
3011.757133  	95.573710 
3013.194040  	95.569307 
3014.630947  	95.522356 
3016.067854  	95.443993 
3017.504761  	95.412287 
3018.941668  	95.407545 
3020.378575  	95.372660 
3021.815482  	95.334855 
3023.252389  	95.303582 
3024.689296  	95.278707 
3026.126203  	95.263002 
3027.563110  	95.217453 
3029.000017  	95.167533 
3030.436924  	95.150796 
3031.873831  	95.120445 
3033.310738  	95.067879 
3034.747645  	95.022187 
3036.184552  	94.983327 
3037.621459  	94.958043 
3039.058366  	94.930247 
3040.495273  	94.882496 
3041.932180  	94.847100 
3043.369087  	94.833403 
3044.805994  	94.798280 
3046.242901  	94.737979 
3047.679808  	94.700036 
3049.116715  	94.669297 
3050.553622  	94.597049 
3051.990529  	94.525716 
3053.427436  	94.497891 
3054.864343  	94.477445 
3056.301250  	94.446564 
3057.738157  	94.416020 
3059.175064  	94.370726 
3060.611972  	94.309099 
3062.048879  	94.288816 
3063.485786  	94.319328 
3064.922693  	94.293946 
3066.359600  	94.192701 
3067.796507  	94.113534 
3069.233414  	94.061734 
3070.670321  	94.006349 
3072.107228  	93.954807 
3073.544135  	93.906931 
3074.981042  	93.879935 
3076.417949  	93.846069 
3077.854856  	93.776437 
3079.291763  	93.732921 
3080.728670  	93.715368 
3082.165577  	93.661950 
3083.602484  	93.583656 
3085.039391  	93.516230 
3086.476298  	93.471749 
3087.913205  	93.428522 
3089.350112  	93.378709 
3090.787019  	93.341239 
3092.223926  	93.297761 
3093.660833  	93.266303 
3095.097740  	93.243586 
3096.534647  	93.147794 
3097.971554  	93.040058 
3099.408461  	93.013874 
3100.845368  	92.992672 
3102.282275  	92.922197 
3103.719182  	92.843851 
3105.156089  	92.801866 
3106.592996  	92.774345 
3108.029903  	92.712445 
3109.466811  	92.670163 
3110.903718  	92.637485 
3112.340625  	92.542104 
3113.777532  	92.488238 
3115.214439  	92.493441 
3116.651346  	92.430337 
3118.088253  	92.333256 
3119.525160  	92.260235 
3120.962067  	92.207033 
3122.398974  	92.173004 
3123.835881  	92.112244 
3125.272788  	92.055694 
3126.709695  	92.031621 
3128.146602  	91.967104 
3129.583509  	91.894006 
3131.020416  	91.860270 
3132.457323  	91.804590 
3133.894230  	91.722489 
3135.331137  	91.664511 
3136.768044  	91.629590 
3138.204951  	91.587079 
3139.641858  	91.537477 
3141.078765  	91.489188 
3142.515672  	91.418800 
3143.952579  	91.350486 
3145.389486  	91.311321 
3146.826393  	91.264295 
3148.263300  	91.213470 
3149.700207  	91.156058 
3151.137114  	91.065702 
3152.574021  	90.978741 
3154.010928  	90.908701 
3155.447835  	90.849579 
3156.884742  	90.806056 
3158.321649  	90.767372 
3159.758557  	90.751027 
3161.195464  	90.716804 
3162.632371  	90.639625 
3164.069278  	90.607017 
3165.506185  	90.577515 
3166.943092  	90.466898 
3168.379999  	90.364724 
3169.816906  	90.321585 
3171.253813  	90.293415 
3172.690720  	90.260705 
3174.127627  	90.224179 
3175.564534  	90.182444 
3177.001441  	90.110036 
3178.438348  	90.026788 
3179.875255  	89.979584 
3181.312162  	89.944977 
3182.749069  	89.910754 
3184.185976  	89.864969 
3185.622883  	89.788957 
3187.059790  	89.721848 
3188.496697  	89.668343 
3189.933604  	89.613175 
3191.370511  	89.560011 
3192.807418  	89.515701 
3194.244325  	89.522384 
3195.681232  	89.522382 
3197.118139  	89.443109 
3198.555046  	89.368298 
3199.991953  	89.323031 
3201.428860  	89.279225 
3202.865767  	89.262945 
3204.302674  	89.242046 
3205.739581  	89.206348 
3207.176488  	89.161111 
3208.613395  	89.090035 
3210.050303  	89.034210 
3211.487210  	89.001707 
3212.924117  	88.987148 
3214.361024  	88.977433 
3215.797931  	88.937923 
3217.234838  	88.926251 
3218.671745  	88.901894 
3220.108652  	88.811257 
3221.545559  	88.772608 
3222.982466  	88.743597 
3224.419373  	88.703617 
3225.856280  	88.757744 
3227.293187  	88.757637 
3228.730094  	88.672593 
3230.167001  	88.654862 
3231.603908  	88.635341 
3233.040815  	88.607041 
3234.477722  	88.602180 
3235.914629  	88.562046 
3237.351536  	88.550096 
3238.788443  	88.558750 
3240.225350  	88.536992 
3241.662257  	88.512531 
3243.099164  	88.462482 
3244.536071  	88.451287 
3245.972978  	88.482031 
3247.409885  	88.439136 
3248.846792  	88.401847 
3250.283699  	88.399260 
3251.720606  	88.356937 
3253.157513  	88.325703 
3254.594420  	88.303323 
3256.031327  	88.267216 
3257.468234  	88.254867 
3258.905142  	88.270310 
3260.342049  	88.297015 
3261.778956  	88.279164 
3263.215863  	88.258591 
3264.652770  	88.282074 
3266.089677  	88.233608 
3267.526584  	88.171439 
3268.963491  	88.207542 
3270.400398  	88.230445 
3271.837305  	88.207619 
3273.274212  	88.184689 
3274.711119  	88.187082 
3276.148026  	88.219063 
3277.584933  	88.194929 
3279.021840  	88.176331 
3280.458747  	88.205455 
3281.895654  	88.141971 
3283.332561  	88.076178 
3284.769468  	88.114929 
3286.206375  	88.151031 
3287.643282  	88.166739 
3289.080189  	88.133375 
3290.517096  	88.058304 
3291.954003  	88.062539 
3293.390910  	88.092879 
3294.827817  	88.081107 
3296.264724  	88.068406 
3297.701631  	88.049648 
3299.138538  	88.035137 
3300.575445  	88.029401 
3302.012352  	88.032247 
3303.449259  	88.041979 
3304.886166  	88.021093 
3306.323073  	88.024098 
3307.759980  	88.059191 
3309.196888  	88.048662 
3310.633795  	88.048818 
3312.070702  	88.067744 
3313.507609  	88.027838 
3314.944516  	87.972421 
3316.381423  	87.963951 
3317.818330  	88.005583 
3319.255237  	88.027665 
3320.692144  	87.976955 
3322.129051  	87.931666 
3323.565958  	87.914634 
3325.002865  	87.904297 
3326.439772  	87.938033 
3327.876679  	87.982907 
3329.313586  	88.007346 
3330.750493  	88.012038 
3332.187400  	87.979023 
3333.624307  	87.949760 
3335.061214  	87.936457 
3336.498121  	87.910579 
3337.935028  	87.877927 
3339.371935  	87.837708 
3340.808842  	87.841215 
3342.245749  	87.908065 
3343.682656  	87.944113 
3345.119563  	87.913895 
3346.556470  	87.864180 
3347.993377  	87.839083 
3349.430284  	87.835687 
3350.867191  	87.828863 
3352.304098  	87.847952 
3353.741005  	87.877626 
3355.177912  	87.888646 
3356.614819  	87.910988 
3358.051726  	87.914775 
3359.488634  	87.906480 
3360.925541  	87.923474 
3362.362448  	87.931046 
3363.799355  	87.958677 
3365.236262  	87.985150 
3366.673169  	87.935641 
3368.110076  	87.892789 
3369.546983  	87.921457 
3370.983890  	87.995927 
3372.420797  	88.055391 
3373.857704  	88.035039 
3375.294611  	88.013950 
3376.731518  	88.039486 
3378.168425  	88.072974 
3379.605332  	88.114255 
3381.042239  	88.076836 
3382.479146  	88.001387 
3383.916053  	88.027586 
3385.352960  	88.062871 
3386.789867  	88.084968 
3388.226774  	88.137715 
3389.663681  	88.130774 
3391.100588  	88.103855 
3392.537495  	88.112283 
3393.974402  	88.158390 
3395.411309  	88.266165 
3396.848216  	88.331523 
3398.285123  	88.331929 
3399.722030  	88.333461 
3401.158937  	88.329109 
3402.595844  	88.372090 
3404.032751  	88.406573 
3405.469658  	88.375652 
3406.906565  	88.415978 
3408.343473  	88.486434 
3409.780380  	88.508277 
3411.217287  	88.558282 
3412.654194  	88.606233 
3414.091101  	88.603202 
3415.528008  	88.575058 
3416.964915  	88.603555 
3418.401822  	88.707293 
3419.838729  	88.741801 
3421.275636  	88.758780 
3422.712543  	88.840927 
3424.149450  	88.848794 
3425.586357  	88.862347 
3427.023264  	88.931528 
3428.460171  	88.961968 
3429.897078  	89.032312 
3431.333985  	89.064325 
3432.770892  	89.033231 
3434.207799  	89.119323 
3435.644706  	89.183744 
3437.081613  	89.159682 
3438.518520  	89.199450 
3439.955427  	89.268975 
3441.392334  	89.353920 
3442.829241  	89.382215 
3444.266148  	89.314896 
3445.703055  	89.359510 
3447.139962  	89.446468 
3448.576869  	89.454882 
3450.013776  	89.533863 
3451.450683  	89.629920 
3452.887590  	89.680384 
3454.324497  	89.734784 
3455.761404  	89.756195 
3457.198311  	89.784920 
3458.635219  	89.842930 
3460.072126  	89.872160 
3461.509033  	89.892389 
3462.945940  	89.925504 
3464.382847  	89.998584 
3465.819754  	90.065698 
3467.256661  	90.061158 
3468.693568  	90.094793 
3470.130475  	90.184013 
3471.567382  	90.235874 
3473.004289  	90.278650 
3474.441196  	90.307570 
3475.878103  	90.331682 
3477.315010  	90.412916 
3478.751917  	90.496307 
3480.188824  	90.558246 
3481.625731  	90.627660 
3483.062638  	90.650807 
3484.499545  	90.647031 
3485.936452  	90.740130 
3487.373359  	90.878099 
3488.810266  	90.875098 
3490.247173  	90.822782 
3491.684080  	90.878007 
3493.120987  	90.925321 
3494.557894  	90.964148 
3495.994801  	91.061987 
3497.431708  	91.094775 
3498.868615  	91.091327 
3500.305522  	91.144874 
3501.742429  	91.238117 
3503.179336  	91.378682 
3504.616243  	91.425044 
3506.053150  	91.386211 
3507.490058  	91.456357 
3508.926965  	91.518653 
3510.363872  	91.497798 
3511.800779  	91.522132 
3513.237686  	91.547212 
3514.674593  	91.577256 
3516.111500  	91.644558 
3517.548407  	91.696692 
3518.985314  	91.779411 
3520.422221  	91.861159 
3521.859128  	91.894138 
3523.296035  	91.945638 
3524.732942  	91.998756 
3526.169849  	92.074552 
3527.606756  	92.183098 
3529.043663  	92.210562 
3530.480570  	92.213585 
3531.917477  	92.268079 
3533.354384  	92.314103 
3534.791291  	92.336519 
3536.228198  	92.304872 
3537.665105  	92.269863 
3539.102012  	92.350464 
3540.538919  	92.493398 
3541.975826  	92.621261 
3543.412733  	92.657916 
3544.849640  	92.579308 
3546.286547  	92.533583 
3547.723454  	92.581224 
3549.160361  	92.686086 
3550.597268  	92.832554 
3552.034175  	92.921164 
3553.471082  	92.916338 
3554.907989  	92.927797 
3556.344896  	92.976815 
3557.781804  	93.041120 
3559.218711  	93.110424 
3560.655618  	93.146908 
3562.092525  	93.149468 
3563.529432  	93.186471 
3564.966339  	93.301239 
3566.403246  	93.391016 
3567.840153  	93.322715 
3569.277060  	93.302071 
3570.713967  	93.423653 
3572.150874  	93.501879 
3573.587781  	93.534671 
3575.024688  	93.601994 
3576.461595  	93.697795 
3577.898502  	93.752743 
3579.335409  	93.740262 
3580.772316  	93.728222 
3582.209223  	93.780611 
3583.646130  	93.859943 
3585.083037  	93.929464 
3586.519944  	93.972326 
3587.956851  	93.915127 
3589.393758  	93.853902 
3590.830665  	93.997863 
3592.267572  	94.171546 
3593.704479  	94.231505 
3595.141386  	94.219468 
3596.578293  	94.249358 
3598.015200  	94.335166 
3599.452107  	94.380580 
3600.889014  	94.323641 
3602.325921  	94.327061 
3603.762828  	94.453819 
3605.199735  	94.535117 
3606.636642  	94.581678 
3608.073550  	94.607909 
3609.510457  	94.536516 
3610.947364  	94.603302 
3612.384271  	94.799774 
3613.821178  	94.851473 
3615.258085  	94.807506 
3616.694992  	94.888568 
3618.131899  	94.960034 
3619.568806  	94.865755 
3621.005713  	94.738982 
3622.442620  	94.824636 
3623.879527  	94.957401 
3625.316434  	95.029603 
3626.753341  	95.205519 
3628.190248  	95.466871 
3629.627155  	95.344090 
3631.064062  	95.079388 
3632.500969  	95.337362 
3633.937876  	95.517292 
3635.374783  	95.474876 
3636.811690  	95.509059 
3638.248597  	95.560561 
3639.685504  	95.536018 
3641.122411  	95.585761 
3642.559318  	95.613329 
3643.996225  	95.621057 
3645.433132  	95.793970 
3646.870039  	95.957130 
3648.306946  	95.974729 
3649.743853  	96.079419 
3651.180760  	95.979183 
3652.617667  	95.834085 
3654.054574  	96.090827 
3655.491481  	96.297790 
3656.928389  	96.230004 
3658.365296  	96.222141 
3659.802203  	96.332933 
3661.239110  	96.341790 
3662.676017  	96.336325 
3664.112924  	96.396217 
3665.549831  	96.446417 
3666.986738  	96.502565 
3668.423645  	96.585313 
3669.860552  	96.627199 
3671.297459  	96.515929 
3672.734366  	96.613240 
3674.171273  	96.833184 
3675.608180  	96.863689 
3677.045087  	96.588968 
3678.481994  	96.703721 
3679.918901  	96.802661 
3681.355808  	96.807444 
3682.792715  	96.854371 
3684.229622  	96.884751 
3685.666529  	96.920789 
3687.103436  	96.979888 
3688.540343  	96.971596 
3689.977250  	96.934405 
3691.414157  	96.995721 
3692.851064  	96.996437 
3694.287971  	97.025398 
3695.724878  	97.101522 
3697.161785  	97.095543 
3698.598692  	97.099275 
3700.035599  	97.144448 
3701.472506  	97.183071 
3702.909413  	97.163752 
3704.346320  	97.161036 
3705.783227  	97.175018 
3707.220135  	97.185189 
3708.657042  	97.196844 
3710.093949  	97.253453 
3711.530856  	97.301673 
3712.967763  	97.229794 
3714.404670  	97.194758 
3715.841577  	97.269655 
3717.278484  	97.340483 
3718.715391  	97.337552 
3720.152298  	97.334785 
3721.589205  	97.371741 
3723.026112  	97.343559 
3724.463019  	97.312286 
3725.899926  	97.333961 
3727.336833  	97.275499 
3728.773740  	97.292814 
3730.210647  	97.434529 
3731.647554  	97.504827 
3733.084461  	97.460525 
3734.521368  	97.472200 
3735.958275  	97.438320 
3737.395182  	97.310807 
3738.832089  	97.398019 
3740.268996  	97.467561 
3741.705903  	97.489705 
3743.142810  	97.582158 
3744.579717  	97.550773 
3746.016624  	97.316798 
3747.453531  	97.509840 
3748.890438  	97.641621 
3750.327345  	97.569983 
3751.764252  	97.542176 
3753.201159  	97.530877 
3754.638066  	97.571505 
3756.074973  	97.683596 
3757.511881  	97.691031 
3758.948788  	97.636689 
3760.385695  	97.626457 
3761.822602  	97.615827 
3763.259509  	97.690643 
3764.696416  	97.793465 
3766.133323  	97.582350 
3767.570230  	97.512623 
3769.007137  	97.685927 
3770.444044  	97.670592 
3771.880951  	97.529363 
3773.317858  	97.575606 
3774.754765  	97.659140 
3776.191672  	97.666589 
3777.628579  	97.683982 
3779.065486  	97.705609 
3780.502393  	97.600943 
3781.939300  	97.558658 
3783.376207  	97.644420 
3784.813114  	97.656520 
3786.250021  	97.612231 
3787.686928  	97.591703 
3789.123835  	97.564269 
3790.560742  	97.566557 
3791.997649  	97.564187 
3793.434556  	97.542560 
3794.871463  	97.652296 
3796.308370  	97.676242 
3797.745277  	97.514121 
3799.182184  	97.634402 
3800.619091  	97.877280 
3802.055998  	97.750915 
3803.492905  	97.411104 
3804.929812  	97.614666 
3806.366720  	97.787291 
3807.803627  	97.504004 
3809.240534  	97.376702 
3810.677441  	97.572530 
3812.114348  	97.598625 
3813.551255  	97.636831 
3814.988162  	97.782341 
3816.425069  	97.642476 
3817.861976  	97.485572 
3819.298883  	97.761473 
3820.735790  	97.899189 
3822.172697  	97.527047 
3823.609604  	97.453923 
3825.046511  	97.713578 
3826.483418  	97.740290 
3827.920325  	97.530672 
3829.357232  	97.590911 
3830.794139  	97.743995 
3832.231046  	97.662451 
3833.667953  	97.566483 
3835.104860  	97.647199 
3836.541767  	97.733746 
3837.978674  	97.726800 
3839.415581  	97.605210 
3840.852488  	97.533948 
3842.289395  	97.592725 
3843.726302  	97.623684 
3845.163209  	97.568691 
3846.600116  	97.569014 
3848.037023  	97.657876 
3849.473930  	97.704719 
3850.910837  	97.734158 
3852.347744  	97.850449 
3853.784651  	97.703669 
3855.221558  	97.247734 
3856.658466  	97.415441 
3858.095373  	97.545047 
3859.532280  	97.625970 
3860.969187  	97.727063 
3862.406094  	97.725518 
3863.843001  	97.748566 
3865.279908  	97.688487 
3866.716815  	97.507946 
3868.153722  	97.715328 
3869.590629  	97.874795 
3871.027536  	97.464393 
3872.464443  	97.494444 
3873.901350  	97.716963 
3875.338257  	97.558274 
3876.775164  	97.516582 
3878.212071  	97.695852 
3879.648978  	97.748962 
3881.085885  	97.617788 
3882.522792  	97.512864 
3883.959699  	97.683629 
3885.396606  	97.795681 
3886.833513  	97.546561 
3888.270420  	97.503705 
3889.707327  	97.694773 
3891.144234  	97.711553 
3892.581141  	97.561925 
3894.018048  	97.548011 
3895.454955  	97.624110 
3896.891862  	97.681292 
3898.328769  	97.701371 
3899.765676  	97.668941 
3901.202583  	97.630938 
3902.639490  	97.651917 
3904.076397  	97.635195 
3905.513305  	97.561853 
3906.950212  	97.578775 
3908.387119  	97.637556 
3909.824026  	97.669069 
3911.260933  	97.672335 
3912.697840  	97.624860 
3914.134747  	97.635347 
3915.571654  	97.698495 
3917.008561  	97.634710 
3918.445468  	97.558732 
3919.882375  	97.589753 
3921.319282  	97.572865 
3922.756189  	97.611728 
3924.193096  	97.679325 
3925.630003  	97.589484 
3927.066910  	97.562967 
3928.503817  	97.682646 
3929.940724  	97.725456 
3931.377631  	97.694915 
3932.814538  	97.651038 
3934.251445  	97.583212 
3935.688352  	97.601405 
3937.125259  	97.640738 
3938.562166  	97.604409 
3939.999073  	97.618806 
3941.435980  	97.684360 
3942.872887  	97.626638 
3944.309794  	97.537773 
3945.746701  	97.601952 
3947.183608  	97.671075 
3948.620515  	97.649173 
3950.057422  	97.618733 
3951.494329  	97.627868 
3952.931236  	97.648469 
3954.368143  	97.658804 
3955.805051  	97.643675 
3957.241958  	97.613246 
3958.678865  	97.600735 
3960.115772  	97.629372 
3961.552679  	97.639464 
3962.989586  	97.606284 
3964.426493  	97.597332 
3965.863400  	97.597630 
3967.300307  	97.576492 
3968.737214  	97.578314 
3970.174121  	97.592835 
3971.611028  	97.594772 
3973.047935  	97.596287 
3974.484842  	97.596405 
3975.921749  	97.613586 
3977.358656  	97.620084 
3978.795563  	97.578390 
3980.232470  	97.555492 
3981.669377  	97.580676 
3983.106284  	97.605598 
3984.543191  	97.613678 
3985.980098  	97.616648 
3987.417005  	97.639311 
3988.853912  	97.670077 
3990.290819  	97.662199 
3991.727726  	97.623701 
3993.164633  	97.598450 
3994.601540  	97.605396 
3996.038447  	97.612040 
3997.475354  	97.593358 
3998.912261  	97.600417 
4000.349168  	97.608206 