##TITLE=No Description
##DATA TYPE=INFRARED SPECTRUM
##XUNITS=1/CM
##YUNITS=%T
399.460154  	32.069429 
400.897061  	30.730454 
402.333968  	30.572002 
403.770875  	30.378973 
405.207782  	30.407386 
406.644689  	30.714997 
408.081596  	29.424855 
409.518503  	29.757343 
410.955410  	31.016515 
412.392317  	31.115798 
413.829224  	31.288464 
415.266131  	30.222403 
416.703038  	29.498559 
418.139945  	30.940575 
419.576852  	29.541448 
421.013759  	29.498682 
422.450666  	30.580020 
423.887574  	30.009945 
425.324481  	29.871868 
426.761388  	30.220482 
428.198295  	30.511789 
429.635202  	31.369843 
431.072109  	31.072338 
432.509016  	30.802200 
433.945923  	31.184882 
435.382830  	30.915277 
436.819737  	30.956203 
438.256644  	30.647834 
439.693551  	30.041351 
441.130458  	30.966548 
442.567365  	31.545464 
444.004272  	31.314637 
445.441179  	31.361744 
446.878086  	30.987177 
448.314993  	31.139762 
449.751900  	31.316068 
451.188807  	31.083950 
452.625714  	31.514628 
454.062621  	31.370662 
455.499528  	30.910211 
456.936435  	31.231840 
458.373342  	31.414659 
459.810249  	31.667989 
461.247156  	31.826113 
462.684063  	31.405428 
464.120970  	31.241583 
465.557877  	30.904432 
466.994784  	30.686744 
468.431691  	31.328694 
469.868598  	31.570202 
471.305505  	31.644708 
472.742413  	31.945505 
474.179320  	31.615292 
475.616227  	31.269310 
477.053134  	31.241519 
478.490041  	31.448271 
479.926948  	31.796167 
481.363855  	32.044758 
482.800762  	32.193917 
484.237669  	32.033561 
485.674576  	31.817493 
487.111483  	31.809916 
488.548390  	31.758947 
489.985297  	31.829915 
491.422204  	31.836585 
492.859111  	31.638454 
494.296018  	31.690801 
495.732925  	31.694247 
497.169832  	31.821713 
498.606739  	32.345424 
500.043646  	32.401616 
501.480553  	32.237730 
502.917460  	32.328683 
504.354367  	32.268716 
505.791274  	32.385415 
507.228181  	32.530875 
508.665088  	32.361283 
510.101995  	32.289927 
511.538902  	32.201989 
512.975809  	32.352249 
514.412716  	32.837436 
515.849623  	32.874180 
517.286530  	32.625147 
518.723437  	32.624425 
520.160344  	32.735158 
521.597251  	32.901835 
523.034159  	32.949948 
524.471066  	33.007956 
525.907973  	33.233121 
527.344880  	33.250167 
528.781787  	33.151046 
530.218694  	33.125754 
531.655601  	33.227852 
533.092508  	33.491551 
534.529415  	33.621323 
535.966322  	33.688733 
537.403229  	33.765888 
538.840136  	33.642360 
540.277043  	33.629816 
541.713950  	33.771865 
543.150857  	33.812495 
544.587764  	33.997986 
546.024671  	34.182609 
547.461578  	34.149356 
548.898485  	34.146727 
550.335392  	34.182033 
551.772299  	34.333475 
553.209206  	34.554192 
554.646113  	34.609647 
556.083020  	34.641555 
557.519927  	34.705905 
558.956834  	34.757397 
560.393741  	34.935133 
561.830648  	35.061540 
563.267555  	35.035171 
564.704462  	35.077883 
566.141369  	35.264095 
567.578276  	35.467001 
569.015183  	35.587504 
570.452090  	35.695691 
571.888997  	35.763464 
573.325905  	35.698859 
574.762812  	35.707178 
576.199719  	35.904913 
577.636626  	36.083115 
579.073533  	36.170397 
580.510440  	36.259543 
581.947347  	36.413046 
583.384254  	36.521277 
584.821161  	36.541983 
586.258068  	36.669692 
587.694975  	36.822485 
589.131882  	36.866493 
590.568789  	36.988790 
592.005696  	37.144554 
593.442603  	37.203532 
594.879510  	37.324684 
596.316417  	37.484080 
597.753324  	37.558526 
599.190231  	37.587360 
600.627138  	37.653442 
602.064045  	37.825253 
603.500952  	38.032096 
604.937859  	38.200130 
606.374766  	38.369440 
607.811673  	38.489987 
609.248580  	38.583481 
610.685487  	38.678469 
612.122394  	38.794184 
613.559301  	38.930465 
614.996208  	39.023728 
616.433115  	39.132240 
617.870022  	39.342456 
619.306929  	39.564256 
620.743836  	39.732830 
622.180744  	39.841056 
623.617651  	39.923079 
625.054558  	40.058169 
626.491465  	40.229072 
627.928372  	40.398640 
629.365279  	40.568896 
630.802186  	40.704986 
632.239093  	40.834010 
633.676000  	40.955261 
635.112907  	41.066658 
636.549814  	41.207427 
637.986721  	41.364670 
639.423628  	41.498668 
640.860535  	41.617094 
642.297442  	41.736271 
643.734349  	41.901975 
645.171256  	42.089091 
646.608163  	42.306792 
648.045070  	42.503956 
649.481977  	42.654109 
650.918884  	42.774410 
652.355791  	42.909330 
653.792698  	43.052377 
655.229605  	43.251005 
656.666512  	43.457760 
658.103419  	43.614602 
659.540326  	43.776466 
660.977233  	43.946188 
662.414140  	44.121625 
663.851047  	44.329596 
665.287954  	44.413875 
666.724861  	44.488465 
668.161768  	44.759712 
669.598675  	45.059604 
671.035582  	45.154037 
672.472490  	45.282931 
673.909397  	45.490422 
675.346304  	45.709202 
676.783211  	45.926503 
678.220118  	46.123910 
679.657025  	46.288185 
681.093932  	46.468163 
682.530839  	46.656523 
683.967746  	46.818883 
685.404653  	46.982595 
686.841560  	47.186674 
688.278467  	47.406589 
689.715374  	47.618468 
691.152281  	47.831251 
692.589188  	48.037885 
694.026095  	48.241101 
695.463002  	48.435064 
696.899909  	48.591310 
698.336816  	48.772193 
699.773723  	48.985392 
701.210630  	49.151198 
702.647537  	49.310927 
704.084444  	49.526489 
705.521351  	49.744670 
706.958258  	49.970772 
708.395165  	50.183036 
709.832072  	50.359899 
711.268979  	50.579797 
712.705886  	50.816284 
714.142793  	51.026397 
715.579700  	51.217278 
717.016607  	51.422830 
718.453514  	51.668092 
719.890421  	51.891393 
721.327328  	52.098637 
722.764236  	52.345612 
724.201143  	52.573420 
725.638050  	52.702831 
727.074957  	52.879639 
728.511864  	53.151137 
729.948771  	53.426052 
731.385678  	53.656700 
732.822585  	53.825530 
734.259492  	54.038633 
735.696399  	54.333145 
737.133306  	54.557039 
738.570213  	54.749995 
740.007120  	55.005798 
741.444027  	55.215891 
742.880934  	55.418417 
744.317841  	55.712173 
745.754748  	55.974594 
747.191655  	56.163380 
748.628562  	56.365655 
750.065469  	56.565764 
751.502376  	56.775013 
752.939283  	57.040527 
754.376190  	57.266615 
755.813097  	57.419998 
757.250004  	57.657569 
758.686911  	57.976995 
760.123818  	58.222217 
761.560725  	58.433363 
762.997632  	58.695573 
764.434539  	58.953125 
765.871446  	59.191563 
767.308353  	59.420766 
768.745260  	59.617377 
770.182167  	59.834203 
771.619075  	60.090113 
773.055982  	60.312080 
774.492889  	60.545139 
775.929796  	60.853573 
777.366703  	61.123319 
778.803610  	61.327049 
780.240517  	61.593015 
781.677424  	61.889170 
783.114331  	62.140312 
784.551238  	62.372245 
785.988145  	62.567841 
787.425052  	62.778945 
788.861959  	63.053222 
790.298866  	63.307507 
791.735773  	63.573859 
793.172680  	63.875637 
794.609587  	64.118088 
796.046494  	64.350815 
797.483401  	64.599399 
798.920308  	64.799870 
800.357215  	65.025830 
801.794122  	65.322585 
803.231029  	65.621779 
804.667936  	65.853449 
806.104843  	66.038090 
807.541750  	66.296738 
808.978657  	66.588122 
810.415564  	66.816130 
811.852471  	67.067135 
813.289378  	67.326236 
814.726285  	67.555431 
816.163192  	67.846662 
817.600099  	68.132726 
819.037006  	68.345924 
820.473913  	68.588219 
821.910821  	68.868563 
823.347728  	69.119148 
824.784635  	69.351633 
826.221542  	69.617259 
827.658449  	69.889934 
829.095356  	70.117129 
830.532263  	70.361897 
831.969170  	70.633985 
833.406077  	70.860938 
834.842984  	71.086912 
836.279891  	71.354417 
837.716798  	71.632183 
839.153705  	71.886079 
840.590612  	72.112990 
842.027519  	72.383300 
843.464426  	72.671551 
844.901333  	72.899129 
846.338240  	73.130366 
847.775147  	73.380737 
849.212054  	73.622675 
850.648961  	73.889472 
852.085868  	74.145044 
853.522775  	74.389255 
854.959682  	74.657801 
856.396589  	74.902637 
857.833496  	75.124234 
859.270403  	75.363285 
860.707310  	75.620162 
862.144217  	75.878960 
863.581124  	76.120126 
865.018031  	76.347308 
866.454938  	76.558393 
867.891845  	76.787342 
869.328752  	77.057651 
870.765660  	77.281016 
872.202567  	77.467314 
873.639474  	77.705887 
875.076381  	77.971435 
876.513288  	78.224982 
877.950195  	78.435585 
879.387102  	78.636950 
880.824009  	78.878344 
882.260916  	79.076435 
883.697823  	79.259792 
885.134730  	79.475240 
886.571637  	79.642437 
888.008544  	79.849609 
889.445451  	80.116675 
890.882358  	80.326455 
892.319265  	80.534552 
893.756172  	80.733481 
895.193079  	80.899017 
896.629986  	81.101514 
898.066893  	81.302266 
899.503800  	81.515277 
900.940707  	81.724600 
902.377614  	81.855231 
903.814521  	82.014082 
905.251428  	82.213490 
906.688335  	82.396119 
908.125242  	82.585802 
909.562149  	82.717198 
910.999056  	82.862051 
912.435963  	83.089473 
913.872870  	83.267286 
915.309777  	83.427050 
916.746684  	83.604172 
918.183591  	83.748835 
919.620498  	83.923020 
921.057406  	84.099094 
922.494313  	84.254260 
923.931220  	84.410667 
925.368127  	84.537490 
926.805034  	84.714198 
928.241941  	84.906979 
929.678848  	85.009553 
931.115755  	85.111602 
932.552662  	85.231930 
933.989569  	85.349562 
935.426476  	85.476755 
936.863383  	85.582499 
938.300290  	85.733010 
939.737197  	85.881189 
941.174104  	85.953667 
942.611011  	86.071467 
944.047918  	86.193036 
945.484825  	86.268815 
946.921732  	86.379860 
948.358639  	86.470381 
949.795546  	86.556795 
951.232453  	86.672914 
952.669360  	86.768228 
954.106267  	86.887829 
955.543174  	86.991770 
956.980081  	87.068164 
958.416988  	87.182326 
959.853895  	87.264590 
961.290802  	87.352624 
962.727709  	87.465433 
964.164616  	87.520427 
965.601523  	87.608083 
967.038430  	87.712668 
968.475337  	87.782592 
969.912244  	87.887022 
971.349152  	87.940297 
972.786059  	87.961481 
974.222966  	88.030879 
975.659873  	88.081776 
977.096780  	88.176029 
978.533687  	88.282841 
979.970594  	88.322375 
981.407501  	88.394136 
982.844408  	88.426675 
984.281315  	88.424584 
985.718222  	88.529953 
987.155129  	88.612820 
988.592036  	88.644196 
990.028943  	88.726668 
991.465850  	88.793114 
992.902757  	88.835385 
994.339664  	88.880548 
995.776571  	88.939629 
997.213478  	89.024928 
998.650385  	89.065496 
1000.087292  	89.081203 
1001.524199  	89.110826 
1002.961106  	89.131893 
1004.398013  	89.184159 
1005.834920  	89.237829 
1007.271827  	89.280287 
1008.708734  	89.345395 
1010.145641  	89.372951 
1011.582548  	89.404562 
1013.019455  	89.469517 
1014.456362  	89.499524 
1015.893269  	89.534474 
1017.330176  	89.553509 
1018.767083  	89.552906 
1020.203991  	89.613651 
1021.640898  	89.656237 
1023.077805  	89.672623 
1024.514712  	89.727098 
1025.951619  	89.750050 
1027.388526  	89.751450 
1028.825433  	89.755553 
1030.262340  	89.771351 
1031.699247  	89.849285 
1033.136154  	89.887934 
1034.573061  	89.864689 
1036.009968  	89.892611 
1037.446875  	89.927733 
1038.883782  	89.945624 
1040.320689  	89.983124 
1041.757596  	90.012173 
1043.194503  	90.041438 
1044.631410  	90.066351 
1046.068317  	90.074412 
1047.505224  	90.091953 
1048.942131  	90.118997 
1050.379038  	90.143259 
1051.815945  	90.145860 
1053.252852  	90.162195 
1054.689759  	90.221924 
1056.126666  	90.247228 
1057.563573  	90.242996 
1059.000480  	90.258648 
1060.437387  	90.270352 
1061.874294  	90.293003 
1063.311201  	90.317519 
1064.748108  	90.337782 
1066.185015  	90.370950 
1067.621922  	90.379031 
1069.058829  	90.396109 
1070.495737  	90.418963 
1071.932644  	90.407912 
1073.369551  	90.441814 
1074.806458  	90.466244 
1076.243365  	90.436646 
1077.680272  	90.461014 
1079.117179  	90.476505 
1080.554086  	90.457943 
1081.990993  	90.485552 
1083.427900  	90.510891 
1084.864807  	90.521896 
1086.301714  	90.502555 
1087.738621  	90.470891 
1089.175528  	90.526159 
1090.612435  	90.572144 
1092.049342  	90.552180 
1093.486249  	90.544401 
1094.923156  	90.530292 
1096.360063  	90.556726 
1097.796970  	90.606089 
1099.233877  	90.585026 
1100.670784  	90.576216 
1102.107691  	90.586953 
1103.544598  	90.581319 
1104.981505  	90.599132 
1106.418412  	90.595912 
1107.855319  	90.601234 
1109.292226  	90.636420 
1110.729133  	90.646012 
1112.166040  	90.684621 
1113.602947  	90.717966 
1115.039854  	90.704864 
1116.476761  	90.714992 
1117.913668  	90.703650 
1119.350575  	90.695221 
1120.787483  	90.744572 
1122.224390  	90.759950 
1123.661297  	90.747441 
1125.098204  	90.743236 
1126.535111  	90.748882 
1127.972018  	90.779642 
1129.408925  	90.767882 
1130.845832  	90.750843 
1132.282739  	90.782411 
1133.719646  	90.780616 
1135.156553  	90.780343 
1136.593460  	90.802432 
1138.030367  	90.791926 
1139.467274  	90.783117 
1140.904181  	90.759834 
1142.341088  	90.741889 
1143.777995  	90.768647 
1145.214902  	90.764337 
1146.651809  	90.754731 
1148.088716  	90.764939 
1149.525623  	90.743740 
1150.962530  	90.732202 
1152.399437  	90.724290 
1153.836344  	90.719855 
1155.273251  	90.752443 
1156.710158  	90.751921 
1158.147065  	90.734776 
1159.583972  	90.734255 
1161.020879  	90.701859 
1162.457786  	90.688783 
1163.894693  	90.707189 
1165.331600  	90.713983 
1166.768507  	90.731619 
1168.205414  	90.742094 
1169.642322  	90.734534 
1171.079229  	90.715433 
1172.516136  	90.693363 
1173.953043  	90.701354 
1175.389950  	90.694089 
1176.826857  	90.680198 
1178.263764  	90.708620 
1179.700671  	90.707346 
1181.137578  	90.691939 
1182.574485  	90.703815 
1184.011392  	90.690974 
1185.448299  	90.680665 
1186.885206  	90.671544 
1188.322113  	90.653522 
1189.759020  	90.663874 
1191.195927  	90.650432 
1192.632834  	90.643688 
1194.069741  	90.681651 
1195.506648  	90.676792 
1196.943555  	90.666497 
1198.380462  	90.670397 
1199.817369  	90.636024 
1201.254276  	90.634435 
1202.691183  	90.655130 
1204.128090  	90.639224 
1205.564997  	90.620044 
1207.001904  	90.602810 
1208.438811  	90.609892 
1209.875718  	90.630333 
1211.312625  	90.624926 
1212.749532  	90.636344 
1214.186439  	90.640893 
1215.623346  	90.625092 
1217.060253  	90.640196 
1218.497160  	90.643984 
1219.934068  	90.636933 
1221.370975  	90.645940 
1222.807882  	90.637018 
1224.244789  	90.637523 
1225.681696  	90.636505 
1227.118603  	90.607564 
1228.555510  	90.602471 
1229.992417  	90.612024 
1231.429324  	90.617215 
1232.866231  	90.624214 
1234.303138  	90.613862 
1235.740045  	90.601502 
1237.176952  	90.589991 
1238.613859  	90.583998 
1240.050766  	90.588448 
1241.487673  	90.570722 
1242.924580  	90.567328 
1244.361487  	90.579824 
1245.798394  	90.562091 
1247.235301  	90.565619 
1248.672208  	90.573343 
1250.109115  	90.550745 
1251.546022  	90.552019 
1252.982929  	90.545642 
1254.419836  	90.523590 
1255.856743  	90.519439 
1257.293650  	90.495986 
1258.730557  	90.484924 
1260.167464  	90.500041 
1261.604371  	90.498277 
1263.041278  	90.512558 
1264.478185  	90.529967 
1265.915092  	90.524528 
1267.351999  	90.520375 
1268.788907  	90.507729 
1270.225814  	90.500340 
1271.662721  	90.492087 
1273.099628  	90.462181 
1274.536535  	90.454468 
1275.973442  	90.460856 
1277.410349  	90.460040 
1278.847256  	90.465441 
1280.284163  	90.464628 
1281.721070  	90.470535 
1283.157977  	90.475867 
1284.594884  	90.470414 
1286.031791  	90.484370 
1287.468698  	90.496362 
1288.905605  	90.511328 
1290.342512  	90.534065 
1291.779419  	90.519826 
1293.216326  	90.516280 
1294.653233  	90.532369 
1296.090140  	90.521776 
1297.527047  	90.523033 
1298.963954  	90.527243 
1300.400861  	90.531002 
1301.837768  	90.531876 
1303.274675  	90.564820 
1304.711582  	90.560389 
1306.148489  	90.569848 
1307.585396  	90.567325 
1309.022303  	90.580850 
1310.459210  	90.587206 
1311.896117  	90.587009 
1313.333024  	90.593946 
1314.769931  	90.588067 
1316.206838  	90.585440 
1317.643745  	90.597468 
1319.080653  	90.588149 
1320.517560  	90.591532 
1321.954467  	90.607226 
1323.391374  	90.598493 
1324.828281  	90.599706 
1326.265188  	90.592688 
1327.702095  	90.582298 
1329.139002  	90.589709 
1330.575909  	90.578199 
1332.012816  	90.573640 
1333.449723  	90.580673 
1334.886630  	90.554772 
1336.323537  	90.542255 
1337.760444  	90.531767 
1339.197351  	90.503003 
1340.634258  	90.503247 
1342.071165  	90.502014 
1343.508072  	90.502045 
1344.944979  	90.504198 
1346.381886  	90.489545 
1347.818793  	90.488487 
1349.255700  	90.480080 
1350.692607  	90.464498 
1352.129514  	90.455422 
1353.566421  	90.437732 
1355.003328  	90.422195 
1356.440235  	90.413096 
1357.877142  	90.400843 
1359.314049  	90.388273 
1360.750956  	90.379367 
1362.187863  	90.343159 
1363.624770  	90.330713 
1365.061677  	90.318701 
1366.498584  	90.299938 
1367.935491  	90.290746 
1369.372399  	90.250039 
1370.809306  	90.231191 
1372.246213  	90.205998 
1373.683120  	90.130008 
1375.120027  	90.102870 
1376.556934  	90.090066 
1377.993841  	90.047221 
1379.430748  	90.029984 
1380.867655  	90.013361 
1382.304562  	90.002470 
1383.741469  	89.989261 
1385.178376  	89.930107 
1386.615283  	89.898267 
1388.052190  	89.917243 
1389.489097  	89.924995 
1390.926004  	89.944683 
1392.362911  	89.945264 
1393.799818  	89.941950 
1395.236725  	89.953661 
1396.673632  	89.974291 
1398.110539  	89.987936 
1399.547446  	90.016500 
1400.984353  	90.043542 
1402.421260  	90.068646 
1403.858167  	90.066997 
1405.295074  	90.069738 
1406.731981  	90.105054 
1408.168888  	90.123984 
1409.605795  	90.140936 
1411.042702  	90.147009 
1412.479609  	90.169765 
1413.916516  	90.192915 
1415.353423  	90.187713 
1416.790330  	90.189676 
1418.227238  	90.220343 
1419.664145  	90.247536 
1421.101052  	90.279711 
1422.537959  	90.283550 
1423.974866  	90.278214 
1425.411773  	90.310891 
1426.848680  	90.326393 
1428.285587  	90.320116 
1429.722494  	90.344160 
1431.159401  	90.305001 
1432.596308  	90.298418 
1434.033215  	90.314494 
1435.470122  	90.267316 
1436.907029  	90.295907 
1438.343936  	90.322614 
1439.780843  	90.299022 
1441.217750  	90.307226 
1442.654657  	90.310946 
1444.091564  	90.325887 
1445.528471  	90.326744 
1446.965378  	90.310774 
1448.402285  	90.295836 
1449.839192  	90.289019 
1451.276099  	90.282834 
1452.713006  	90.275357 
1454.149913  	90.245083 
1455.586820  	90.210520 
1457.023727  	90.220694 
1458.460634  	90.210759 
1459.897541  	90.235752 
1461.334448  	90.222916 
1462.771355  	90.193149 
1464.208262  	90.182709 
1465.645169  	90.181329 
1467.082076  	90.173472 
1468.518984  	90.163978 
1469.955891  	90.130450 
1471.392798  	90.111217 
1472.829705  	90.113846 
1474.266612  	90.080145 
1475.703519  	90.084263 
1477.140426  	90.069798 
1478.577333  	90.053925 
1480.014240  	90.049532 
1481.451147  	90.021892 
1482.888054  	90.017713 
1484.324961  	89.998203 
1485.761868  	89.943390 
1487.198775  	89.919881 
1488.635682  	89.876286 
1490.072589  	89.845259 
1491.509496  	89.842043 
1492.946403  	89.808635 
1494.383310  	89.773485 
1495.820217  	89.759041 
1497.257124  	89.710086 
1498.694031  	89.691313 
1500.130938  	89.652354 
1501.567845  	89.592241 
1503.004752  	89.574037 
1504.441659  	89.524099 
1505.878566  	89.461737 
1507.315473  	89.432914 
1508.752380  	89.378155 
1510.189287  	89.376960 
1511.626194  	89.313026 
1513.063101  	89.251413 
1514.500008  	89.243706 
1515.936915  	89.179888 
1517.373822  	89.129588 
1518.810730  	89.093733 
1520.247637  	89.012806 
1521.684544  	89.005629 
1523.121451  	88.961329 
1524.558358  	88.876795 
1525.995265  	88.828583 
1527.432172  	88.739419 
1528.869079  	88.695277 
1530.305986  	88.657694 
1531.742893  	88.526650 
1533.179800  	88.429053 
1534.616707  	88.345608 
1536.053614  	88.250896 
1537.490521  	88.171296 
1538.927428  	88.023323 
1540.364335  	87.901252 
1541.801242  	87.871626 
1543.238149  	87.702336 
1544.675056  	87.575076 
1546.111963  	87.467086 
1547.548870  	87.353183 
1548.985777  	87.248217 
1550.422684  	87.079823 
1551.859591  	86.933110 
1553.296498  	86.832156 
1554.733405  	86.646862 
1556.170312  	86.490315 
1557.607219  	86.318972 
1559.044126  	86.103985 
1560.481033  	86.069904 
1561.917940  	85.903060 
1563.354847  	85.750380 
1564.791754  	85.663953 
1566.228661  	85.426009 
1567.665569  	85.222114 
1569.102476  	85.099186 
1570.539383  	84.907374 
1571.976290  	84.776019 
1573.413197  	84.553699 
1574.850104  	84.319342 
1576.287011  	84.176686 
1577.723918  	83.954313 
1579.160825  	83.764120 
1580.597732  	83.580827 
1582.034639  	83.341479 
1583.471546  	83.156460 
1584.908453  	82.925235 
1586.345360  	82.614773 
1587.782267  	82.423647 
1589.219174  	82.118936 
1590.656081  	81.807509 
1592.092988  	81.536127 
1593.529895  	81.177386 
1594.966802  	80.862876 
1596.403709  	80.546547 
1597.840616  	80.164161 
1599.277523  	79.848255 
1600.714430  	79.402591 
1602.151337  	78.940534 
1603.588244  	78.502779 
1605.025151  	77.991576 
1606.462058  	77.537905 
1607.898965  	77.093731 
1609.335872  	76.554574 
1610.772779  	76.088152 
1612.209686  	75.583610 
1613.646593  	75.052097 
1615.083500  	74.614536 
1616.520407  	74.036306 
1617.957315  	73.584368 
1619.394222  	73.157782 
1620.831129  	72.539158 
1622.268036  	72.142287 
1623.704943  	71.785292 
1625.141850  	71.306976 
1626.578757  	71.055826 
1628.015664  	70.726860 
1629.452571  	70.470395 
1630.889478  	70.306895 
1632.326385  	70.008257 
1633.763292  	69.861846 
1635.200199  	69.830111 
1636.637106  	69.925591 
1638.074013  	70.129759 
1639.510920  	70.062247 
1640.947827  	70.128876 
1642.384734  	70.378519 
1643.821641  	70.399921 
1645.258548  	70.528516 
1646.695455  	70.990610 
1648.132362  	71.477577 
1649.569269  	71.819443 
1651.006176  	71.824154 
1652.443083  	71.713069 
1653.879990  	73.265770 
1655.316897  	73.567542 
1656.753804  	73.686607 
1658.190711  	74.093862 
1659.627618  	74.455142 
1661.064525  	74.894314 
1662.501432  	75.386909 
1663.938339  	75.906286 
1665.375246  	76.417951 
1666.812154  	76.737532 
1668.249061  	77.087334 
1669.685968  	77.750811 
1671.122875  	78.325920 
1672.559782  	78.800945 
1673.996689  	79.146988 
1675.433596  	79.560022 
1676.870503  	80.324758 
1678.307410  	80.702484 
1679.744317  	81.105500 
1681.181224  	81.629135 
1682.618131  	81.965878 
1684.055038  	82.450109 
1685.491945  	83.215981 
1686.928852  	83.452160 
1688.365759  	83.842009 
1689.802666  	84.329993 
1691.239573  	84.726934 
1692.676480  	85.158782 
1694.113387  	85.439484 
1695.550294  	85.744412 
1696.987201  	86.256833 
1698.424108  	86.469623 
1699.861015  	86.744000 
1701.297922  	87.284239 
1702.734829  	87.491065 
1704.171736  	87.782212 
1705.608643  	88.135371 
1707.045550  	88.436738 
1708.482457  	88.741947 
1709.919364  	89.013906 
1711.356271  	89.314829 
1712.793178  	89.600736 
1714.230085  	89.828384 
1715.666992  	90.140340 
1717.103900  	90.430231 
1718.540807  	90.675970 
1719.977714  	91.000236 
1721.414621  	91.217460 
1722.851528  	91.450666 
1724.288435  	91.729225 
1725.725342  	91.965111 
1727.162249  	92.226193 
1728.599156  	92.368752 
1730.036063  	92.478768 
1731.472970  	92.667366 
1732.909877  	92.788262 
1734.346784  	92.880472 
1735.783691  	93.074404 
1737.220598  	93.166197 
1738.657505  	93.290717 
1740.094412  	93.461700 
1741.531319  	93.543107 
1742.968226  	93.679326 
1744.405133  	93.795831 
1745.842040  	93.884211 
1747.278947  	94.024887 
1748.715854  	94.126325 
1750.152761  	94.231607 
1751.589668  	94.346381 
1753.026575  	94.435279 
1754.463482  	94.588919 
1755.900389  	94.674025 
1757.337296  	94.692900 
1758.774203  	94.781947 
1760.211110  	94.841968 
1761.648017  	94.905118 
1763.084924  	95.001640 
1764.521831  	95.060148 
1765.958738  	95.147257 
1767.395646  	95.180685 
1768.832553  	95.177619 
1770.269460  	95.266571 
1771.706367  	95.322327 
1773.143274  	95.361683 
1774.580181  	95.429853 
1776.017088  	95.441107 
1777.453995  	95.508399 
1778.890902  	95.555758 
1780.327809  	95.556365 
1781.764716  	95.626396 
1783.201623  	95.670547 
1784.638530  	95.695393 
1786.075437  	95.766213 
1787.512344  	95.788425 
1788.949251  	95.833366 
1790.386158  	95.882464 
1791.823065  	95.871849 
1793.259972  	95.914272 
1794.696879  	95.939908 
1796.133786  	95.960207 
1797.570693  	96.020302 
1799.007600  	96.041145 
1800.444507  	96.082545 
1801.881414  	96.127972 
1803.318321  	96.131561 
1804.755228  	96.162194 
1806.192135  	96.189820 
1807.629042  	96.201698 
1809.065949  	96.252991 
1810.502856  	96.262529 
1811.939763  	96.274715 
1813.376670  	96.305931 
1814.813577  	96.308195 
1816.250485  	96.350171 
1817.687392  	96.365794 
1819.124299  	96.335911 
1820.561206  	96.368598 
1821.998113  	96.385442 
1823.435020  	96.415233 
1824.871927  	96.449041 
1826.308834  	96.407815 
1827.745741  	96.451388 
1829.182648  	96.494942 
1830.619555  	96.459258 
1832.056462  	96.485647 
1833.493369  	96.484426 
1834.930276  	96.483467 
1836.367183  	96.533150 
1837.804090  	96.553067 
1839.240997  	96.611554 
1840.677904  	96.635982 
1842.114811  	96.596096 
1843.551718  	96.623246 
1844.988625  	96.612206 
1846.425532  	96.609383 
1847.862439  	96.658478 
1849.299346  	96.617450 
1850.736253  	96.621017 
1852.173160  	96.645476 
1853.610067  	96.617549 
1855.046974  	96.654631 
1856.483881  	96.654492 
1857.920788  	96.624289 
1859.357695  	96.637168 
1860.794602  	96.601140 
1862.231509  	96.620759 
1863.668416  	96.643262 
1865.105323  	96.615442 
1866.542231  	96.660595 
1867.979138  	96.673068 
1869.416045  	96.652625 
1870.852952  	96.692500 
1872.289859  	96.652697 
1873.726766  	96.660955 
1875.163673  	96.738850 
1876.600580  	96.672983 
1878.037487  	96.681821 
1879.474394  	96.687530 
1880.911301  	96.665077 
1882.348208  	96.723100 
1883.785115  	96.648457 
1885.222022  	96.625072 
1886.658929  	96.741398 
1888.095836  	96.738584 
1889.532743  	96.724475 
1890.969650  	96.661270 
1892.406557  	96.617921 
1893.843464  	96.702520 
1895.280371  	96.699061 
1896.717278  	96.668718 
1898.154185  	96.701973 
1899.591092  	96.682466 
1901.027999  	96.717916 
1902.464906  	96.723812 
1903.901813  	96.666526 
1905.338720  	96.702265 
1906.775627  	96.648817 
1908.212534  	96.690407 
1909.649441  	96.836914 
1911.086348  	96.750505 
1912.523255  	96.752702 
1913.960162  	96.746630 
1915.397069  	96.625408 
1916.833977  	96.679643 
1918.270884  	96.661553 
1919.707791  	96.611171 
1921.144698  	96.707011 
1922.581605  	96.683749 
1924.018512  	96.654144 
1925.455419  	96.677317 
1926.892326  	96.617341 
1928.329233  	96.629214 
1929.766140  	96.634208 
1931.203047  	96.644802 
1932.639954  	96.688550 
1934.076861  	96.648280 
1935.513768  	96.646983 
1936.950675  	96.661101 
1938.387582  	96.611316 
1939.824489  	96.670555 
1941.261396  	96.677687 
1942.698303  	96.608771 
1944.135210  	96.608689 
1945.572117  	96.572293 
1947.009024  	96.630580 
1948.445931  	96.746538 
1949.882838  	96.629998 
1951.319745  	96.637455 
1952.756652  	96.545398 
1954.193559  	96.364437 
1955.630466  	96.401150 
1957.067373  	96.303197 
1958.504280  	96.451833 
1959.941187  	96.761177 
1961.378094  	96.611600 
1962.815001  	96.731081 
1964.251908  	96.785472 
1965.688816  	96.504288 
1967.125723  	96.624804 
1968.562630  	96.581684 
1969.999537  	96.516506 
1971.436444  	96.575157 
1972.873351  	96.150146 
1974.310258  	96.112366 
1975.747165  	96.600437 
1977.184072  	96.593255 
1978.620979  	96.347205 
1980.057886  	96.157418 
1981.494793  	96.217100 
1982.931700  	96.341854 
1984.368607  	96.167687 
1985.805514  	96.215335 
1987.242421  	96.276691 
1988.679328  	96.090851 
1990.116235  	96.152442 
1991.553142  	96.034696 
1992.990049  	95.835520 
1994.426956  	96.080883 
1995.863863  	96.071588 
1997.300770  	95.836051 
1998.737677  	95.776320 
2000.174584  	95.705674 
2001.611491  	95.908666 
2003.048398  	96.198574 
2004.485305  	96.304458 
2005.922212  	96.270301 
2007.359119  	95.930349 
2008.796026  	95.778770 
2010.232933  	95.686244 
2011.669840  	95.507570 
2013.106747  	95.912409 
2014.543654  	96.108757 
2015.980562  	95.747741 
2017.417469  	95.762283 
2018.854376  	95.898482 
2020.291283  	95.864908 
2021.728190  	95.714862 
2023.165097  	95.634226 
2024.602004  	95.951159 
2026.038911  	95.781473 
2027.475818  	95.342346 
2028.912725  	95.576493 
2030.349632  	95.674833 
2031.786539  	95.591755 
2033.223446  	95.637895 
2034.660353  	95.369174 
2036.097260  	95.362802 
2037.534167  	95.597166 
2038.971074  	95.580881 
2040.407981  	95.529283 
2041.844888  	95.365539 
2043.281795  	95.355242 
2044.718702  	95.421615 
2046.155609  	95.184374 
2047.592516  	95.169624 
2049.029423  	95.246736 
2050.466330  	95.097221 
2051.903237  	95.144924 
2053.340144  	95.205728 
2054.777051  	95.227421 
2056.213958  	95.317931 
2057.650865  	95.224965 
2059.087772  	95.197354 
2060.524679  	95.257067 
2061.961586  	95.152081 
2063.398493  	95.117932 
2064.835401  	95.141925 
2066.272308  	95.143540 
2067.709215  	95.142854 
2069.146122  	95.093201 
2070.583029  	95.170350 
2072.019936  	95.165136 
2073.456843  	94.963086 
2074.893750  	94.925018 
2076.330657  	94.934975 
2077.767564  	94.972311 
2079.204471  	95.113328 
2080.641378  	95.012731 
2082.078285  	94.843153 
2083.515192  	94.818971 
2084.952099  	94.807646 
2086.389006  	94.936362 
2087.825913  	95.071473 
2089.262820  	95.042937 
2090.699727  	95.034588 
2092.136634  	95.062998 
2093.573541  	95.090850 
2095.010448  	94.969133 
2096.447355  	94.791022 
2097.884262  	94.941774 
2099.321169  	95.066389 
2100.758076  	94.930755 
2102.194983  	94.918302 
2103.631890  	94.944833 
2105.068797  	94.907536 
2106.505704  	94.866559 
2107.942611  	94.773636 
2109.379518  	94.775372 
2110.816425  	94.790589 
2112.253332  	94.762967 
2113.690239  	94.838420 
2115.127147  	94.825601 
2116.564054  	94.782250 
2118.000961  	94.860032 
2119.437868  	94.903580 
2120.874775  	94.968302 
2122.311682  	94.945531 
2123.748589  	94.849187 
2125.185496  	95.003285 
2126.622403  	95.136995 
2128.059310  	95.141939 
2129.496217  	95.223863 
2130.933124  	95.174444 
2132.370031  	95.135171 
2133.806938  	95.134546 
2135.243845  	94.994623 
2136.680752  	95.133368 
2138.117659  	95.354137 
2139.554566  	95.368753 
2140.991473  	95.485358 
2142.428380  	95.409669 
2143.865287  	95.216634 
2145.302194  	95.267216 
2146.739101  	95.249825 
2148.176008  	95.226878 
2149.612915  	95.289619 
2151.049822  	95.251594 
2152.486729  	95.200905 
2153.923636  	95.171504 
2155.360543  	95.396627 
2156.797450  	95.727765 
2158.234357  	95.561720 
2159.671264  	95.224333 
2161.108171  	95.033805 
2162.545078  	94.983297 
2163.981985  	95.024291 
2165.418893  	94.960130 
2166.855800  	95.154922 
2168.292707  	95.321095 
2169.729614  	95.085423 
2171.166521  	95.146577 
2172.603428  	95.231565 
2174.040335  	94.921431 
2175.477242  	94.887024 
2176.914149  	95.061460 
2178.351056  	95.098022 
2179.787963  	95.032725 
2181.224870  	94.848997 
2182.661777  	94.979491 
2184.098684  	95.282035 
2185.535591  	95.164805 
2186.972498  	94.959275 
2188.409405  	95.029107 
2189.846312  	95.286777 
2191.283219  	95.403642 
2192.720126  	95.238189 
2194.157033  	95.180612 
2195.593940  	95.213764 
2197.030847  	95.290180 
2198.467754  	95.573578 
2199.904661  	95.611503 
2201.341568  	95.411997 
2202.778475  	95.423857 
2204.215382  	95.553990 
2205.652289  	95.702493 
2207.089196  	95.687223 
2208.526103  	95.508055 
2209.963010  	95.516886 
2211.399917  	95.588118 
2212.836824  	95.579925 
2214.273732  	95.553567 
2215.710639  	95.515249 
2217.147546  	95.685113 
2218.584453  	95.834853 
2220.021360  	95.698498 
2221.458267  	95.635650 
2222.895174  	95.682924 
2224.332081  	95.764783 
2225.768988  	95.927377 
2227.205895  	96.011331 
2228.642802  	96.091525 
2230.079709  	96.064562 
2231.516616  	95.867864 
2232.953523  	95.867153 
2234.390430  	95.954601 
2235.827337  	95.929593 
2237.264244  	95.889181 
2238.701151  	95.778885 
2240.138058  	95.765246 
2241.574965  	95.924326 
2243.011872  	96.001104 
2244.448779  	95.954255 
2245.885686  	95.873059 
2247.322593  	95.946122 
2248.759500  	96.071392 
2250.196407  	95.937800 
2251.633314  	95.865522 
2253.070221  	95.960948 
2254.507128  	95.911545 
2255.944035  	95.940345 
2257.380942  	96.046229 
2258.817849  	95.999883 
2260.254756  	96.003552 
2261.691663  	96.030588 
2263.128570  	96.026878 
2264.565478  	96.147117 
2266.002385  	96.243906 
2267.439292  	96.203342 
2268.876199  	96.132168 
2270.313106  	96.120416 
2271.750013  	96.138711 
2273.186920  	96.096811 
2274.623827  	96.087072 
2276.060734  	96.129299 
2277.497641  	96.113519 
2278.934548  	96.127323 
2280.371455  	96.172986 
2281.808362  	96.176574 
2283.245269  	96.187438 
2284.682176  	96.198399 
2286.119083  	96.236317 
2287.555990  	96.280591 
2288.992897  	96.261825 
2290.429804  	96.269178 
2291.866711  	96.285981 
2293.303618  	96.268179 
2294.740525  	96.299089 
2296.177432  	96.338357 
2297.614339  	96.388313 
2299.051246  	96.401761 
2300.488153  	96.536827 
2301.925060  	96.562116 
2303.361967  	96.560656 
2304.798874  	96.536782 
2306.235781  	96.582127 
2307.672688  	96.610785 
2309.109595  	96.587886 
2310.546502  	96.609364 
2311.983409  	96.638070 
2313.420317  	96.683164 
2314.857224  	96.733005 
2316.294131  	96.729070 
2317.731038  	96.735452 
2319.167945  	96.736401 
2320.604852  	96.722288 
2322.041759  	96.710023 
2323.478666  	96.671313 
2324.915573  	96.758545 
2326.352480  	96.930318 
2327.789387  	96.979030 
2329.226294  	96.974476 
2330.663201  	96.972104 
2332.100108  	96.967071 
2333.537015  	97.025253 
2334.973922  	97.048771 
2336.410829  	97.037593 
2337.847736  	97.062195 
2339.284643  	97.078330 
2340.721550  	97.118516 
2342.158457  	97.138327 
2343.595364  	97.118806 
2345.032271  	97.109236 
2346.469178  	97.032956 
2347.906085  	97.019973 
2349.342992  	97.088776 
2350.779899  	97.079490 
2352.216806  	97.068110 
2353.653713  	97.159503 
2355.090620  	97.212332 
2356.527527  	97.236989 
2357.964434  	97.217015 
2359.401341  	97.111332 
2360.838248  	97.082457 
2362.275155  	97.180890 
2363.712063  	97.315285 
2365.148970  	97.324503 
2366.585877  	97.221522 
2368.022784  	97.186078 
2369.459691  	97.193667 
2370.896598  	97.230979 
2372.333505  	97.266124 
2373.770412  	97.205383 
2375.207319  	97.179920 
2376.644226  	97.214178 
2378.081133  	97.199983 
2379.518040  	97.194256 
2380.954947  	97.204708 
2382.391854  	97.198182 
2383.828761  	97.214011 
2385.265668  	97.239848 
2386.702575  	97.253121 
2388.139482  	97.256418 
2389.576389  	97.266821 
2391.013296  	97.301002 
2392.450203  	97.312493 
2393.887110  	97.310846 
2395.324017  	97.322247 
2396.760924  	97.304418 
2398.197831  	97.298437 
2399.634738  	97.332388 
2401.071645  	97.364099 
2402.508552  	97.389987 
2403.945459  	97.392436 
2405.382366  	97.401040 
2406.819273  	97.422756 
2408.256180  	97.400802 
2409.693087  	97.411717 
2411.129994  	97.455847 
2412.566901  	97.439830 
2414.003809  	97.434843 
2415.440716  	97.451619 
2416.877623  	97.426541 
2418.314530  	97.390509 
2419.751437  	97.388297 
2421.188344  	97.450238 
2422.625251  	97.488423 
2424.062158  	97.463097 
2425.499065  	97.505409 
2426.935972  	97.553845 
2428.372879  	97.540075 
2429.809786  	97.559921 
2431.246693  	97.555878 
2432.683600  	97.524471 
2434.120507  	97.541501 
2435.557414  	97.547550 
2436.994321  	97.550943 
2438.431228  	97.562441 
2439.868135  	97.558950 
2441.305042  	97.578517 
2442.741949  	97.589699 
2444.178856  	97.588101 
2445.615763  	97.575616 
2447.052670  	97.537283 
2448.489577  	97.563364 
2449.926484  	97.597721 
2451.363391  	97.566259 
2452.800298  	97.576455 
2454.237205  	97.595188 
2455.674112  	97.589123 
2457.111019  	97.606923 
2458.547926  	97.607270 
2459.984833  	97.641082 
2461.421740  	97.689947 
2462.858648  	97.671179 
2464.295555  	97.692402 
2465.732462  	97.729837 
2467.169369  	97.715718 
2468.606276  	97.733479 
2470.043183  	97.722406 
2471.480090  	97.676125 
2472.916997  	97.693934 
2474.353904  	97.715041 
2475.790811  	97.717195 
2477.227718  	97.727076 
2478.664625  	97.722504 
2480.101532  	97.717748 
2481.538439  	97.705136 
2482.975346  	97.713374 
2484.412253  	97.756563 
2485.849160  	97.751029 
2487.286067  	97.732530 
2488.722974  	97.773481 
2490.159881  	97.807286 
2491.596788  	97.794509 
2493.033695  	97.779644 
2494.470602  	97.774220 
2495.907509  	97.758535 
2497.344416  	97.790695 
2498.781323  	97.864915 
2500.218230  	97.840701 
2501.655137  	97.773198 
2503.092044  	97.770824 
2504.528951  	97.758380 
2505.965858  	97.772952 
2507.402765  	97.835463 
2508.839672  	97.847984 
2510.276579  	97.855423 
2511.713486  	97.855269 
2513.150394  	97.836948 
2514.587301  	97.885084 
2516.024208  	97.904929 
2517.461115  	97.873034 
2518.898022  	97.916743 
2520.334929  	97.956815 
2521.771836  	97.900070 
2523.208743  	97.819707 
2524.645650  	97.813826 
2526.082557  	97.873104 
2527.519464  	97.885624 
2528.956371  	97.879387 
2530.393278  	97.916027 
2531.830185  	97.924272 
2533.267092  	97.931591 
2534.703999  	97.967930 
2536.140906  	97.976496 
2537.577813  	97.964905 
2539.014720  	97.942329 
2540.451627  	97.959567 
2541.888534  	98.015660 
2543.325441  	98.003435 
2544.762348  	97.990051 
2546.199255  	98.024487 
2547.636162  	98.022189 
2549.073069  	98.023387 
2550.509976  	98.028695 
2551.946883  	98.013457 
2553.383790  	98.031660 
2554.820697  	98.013775 
2556.257604  	97.955424 
2557.694511  	97.968701 
2559.131418  	98.004633 
2560.568325  	97.993917 
2562.005232  	97.974597 
2563.442140  	97.972961 
2564.879047  	97.972826 
2566.315954  	97.960202 
2567.752861  	97.965380 
2569.189768  	97.999265 
2570.626675  	98.030541 
2572.063582  	98.033609 
2573.500489  	98.008345 
2574.937396  	98.015408 
2576.374303  	98.050473 
2577.811210  	98.057725 
2579.248117  	98.073815 
2580.685024  	98.070678 
2582.121931  	98.043182 
2583.558838  	98.087860 
2584.995745  	98.112360 
2586.432652  	98.053839 
2587.869559  	98.035422 
2589.306466  	98.053484 
2590.743373  	98.054814 
2592.180280  	98.031252 
2593.617187  	98.001184 
2595.054094  	98.027684 
2596.491001  	98.040744 
2597.927908  	98.005298 
2599.364815  	98.015290 
2600.801722  	98.024290 
2602.238629  	98.020362 
2603.675536  	98.053221 
2605.112443  	98.055080 
2606.549350  	98.046331 
2607.986257  	98.054688 
2609.423164  	98.029797 
2610.860071  	98.007820 
2612.296979  	97.996263 
2613.733886  	98.004418 
2615.170793  	98.062256 
2616.607700  	98.078898 
2618.044607  	98.040420 
2619.481514  	98.020325 
2620.918421  	98.013809 
2622.355328  	98.020754 
2623.792235  	98.023645 
2625.229142  	98.007707 
2626.666049  	98.005699 
2628.102956  	98.006205 
2629.539863  	98.014764 
2630.976770  	98.026162 
2632.413677  	97.996119 
2633.850584  	97.980530 
2635.287491  	98.006760 
2636.724398  	98.009029 
2638.161305  	97.996112 
2639.598212  	97.998213 
2641.035119  	98.007109 
2642.472026  	98.013921 
2643.908933  	98.005490 
2645.345840  	97.997348 
2646.782747  	98.000371 
2648.219654  	97.991693 
2649.656561  	97.969697 
2651.093468  	97.956179 
2652.530375  	97.965013 
2653.967282  	97.978537 
2655.404189  	97.979160 
2656.841096  	97.975909 
2658.278003  	97.961418 
2659.714910  	97.947756 
2661.151817  	97.964707 
2662.588725  	97.992819 
2664.025632  	98.011655 
2665.462539  	98.009949 
2666.899446  	97.985830 
2668.336353  	97.975762 
2669.773260  	97.975289 
2671.210167  	97.973242 
2672.647074  	97.992164 
2674.083981  	97.997524 
2675.520888  	97.977374 
2676.957795  	97.966548 
2678.394702  	97.949864 
2679.831609  	97.935882 
2681.268516  	97.944539 
2682.705423  	97.946803 
2684.142330  	97.940109 
2685.579237  	97.931478 
2687.016144  	97.922565 
2688.453051  	97.931142 
2689.889958  	97.937995 
2691.326865  	97.922177 
2692.763772  	97.911657 
2694.200679  	97.925766 
2695.637586  	97.930359 
2697.074493  	97.899841 
2698.511400  	97.884286 
2699.948307  	97.897883 
2701.385214  	97.883101 
2702.822121  	97.855541 
2704.259028  	97.852830 
2705.695935  	97.860594 
2707.132842  	97.875109 
2708.569749  	97.872269 
2710.006656  	97.841899 
2711.443564  	97.825611 
2712.880471  	97.826276 
2714.317378  	97.829906 
2715.754285  	97.828606 
2717.191192  	97.807644 
2718.628099  	97.791668 
2720.065006  	97.783168 
2721.501913  	97.758682 
2722.938820  	97.744046 
2724.375727  	97.745403 
2725.812634  	97.742002 
2727.249541  	97.744801 
2728.686448  	97.749498 
2730.123355  	97.732830 
2731.560262  	97.708209 
2732.997169  	97.711018 
2734.434076  	97.720930 
2735.870983  	97.694984 
2737.307890  	97.670218 
2738.744797  	97.669536 
2740.181704  	97.651203 
2741.618611  	97.628068 
2743.055518  	97.613413 
2744.492425  	97.588217 
2745.929332  	97.586712 
2747.366239  	97.608608 
2748.803146  	97.603740 
2750.240053  	97.581512 
2751.676960  	97.557965 
2753.113867  	97.528601 
2754.550774  	97.520815 
2755.987681  	97.537703 
2757.424588  	97.534742 
2758.861495  	97.504496 
2760.298402  	97.481983 
2761.735310  	97.476150 
2763.172217  	97.474925 
2764.609124  	97.465045 
2766.046031  	97.434232 
2767.482938  	97.403575 
2768.919845  	97.396500 
2770.356752  	97.403505 
2771.793659  	97.408097 
2773.230566  	97.387724 
2774.667473  	97.357435 
2776.104380  	97.351767 
2777.541287  	97.337838 
2778.978194  	97.310601 
2780.415101  	97.304962 
2781.852008  	97.287679 
2783.288915  	97.250037 
2784.725822  	97.222891 
2786.162729  	97.208894 
2787.599636  	97.216366 
2789.036543  	97.207777 
2790.473450  	97.163074 
2791.910357  	97.149689 
2793.347264  	97.147665 
2794.784171  	97.104556 
2796.221078  	97.069470 
2797.657985  	97.056614 
2799.094892  	97.039862 
2800.531799  	97.019998 
2801.968706  	96.993784 
2803.405613  	96.976923 
2804.842520  	96.966664 
2806.279427  	96.938005 
2807.716334  	96.913409 
2809.153241  	96.903535 
2810.590148  	96.886459 
2812.027056  	96.859160 
2813.463963  	96.821769 
2814.900870  	96.785472 
2816.337777  	96.770459 
2817.774684  	96.761657 
2819.211591  	96.726002 
2820.648498  	96.677076 
2822.085405  	96.662627 
2823.522312  	96.665841 
2824.959219  	96.638878 
2826.396126  	96.606333 
2827.833033  	96.585384 
2829.269940  	96.541362 
2830.706847  	96.486536 
2832.143754  	96.463114 
2833.580661  	96.458257 
2835.017568  	96.431021 
2836.454475  	96.388770 
2837.891382  	96.363304 
2839.328289  	96.339546 
2840.765196  	96.295650 
2842.202103  	96.245304 
2843.639010  	96.206896 
2845.075917  	96.184531 
2846.512824  	96.156272 
2847.949731  	96.114821 
2849.386638  	96.078783 
2850.823545  	96.037697 
2852.260452  	95.994791 
2853.697359  	95.958190 
2855.134266  	95.908262 
2856.571173  	95.878346 
2858.008080  	95.871346 
2859.444987  	95.825709 
2860.881895  	95.773470 
2862.318802  	95.749920 
2863.755709  	95.711789 
2865.192616  	95.656717 
2866.629523  	95.598901 
2868.066430  	95.553155 
2869.503337  	95.542607 
2870.940244  	95.529944 
2872.377151  	95.487267 
2873.814058  	95.436954 
2875.250965  	95.383601 
2876.687872  	95.324412 
2878.124779  	95.265555 
2879.561686  	95.223305 
2880.998593  	95.191530 
2882.435500  	95.132800 
2883.872407  	95.068354 
2885.309314  	95.031547 
2886.746221  	94.998192 
2888.183128  	94.957677 
2889.620035  	94.902230 
2891.056942  	94.832800 
2892.493849  	94.778120 
2893.930756  	94.723907 
2895.367663  	94.666132 
2896.804570  	94.618409 
2898.241477  	94.554690 
2899.678384  	94.499205 
2901.115291  	94.465009 
2902.552198  	94.391125 
2903.989105  	94.303191 
2905.426012  	94.258220 
2906.862919  	94.214570 
2908.299826  	94.135764 
2909.736733  	94.046679 
2911.173641  	93.985265 
2912.610548  	93.947795 
2914.047455  	93.883890 
2915.484362  	93.784989 
2916.921269  	93.695426 
2918.358176  	93.634220 
2919.795083  	93.569319 
2921.231990  	93.478678 
2922.668897  	93.393969 
2924.105804  	93.315339 
2925.542711  	93.227620 
2926.979618  	93.169874 
2928.416525  	93.110254 
2929.853432  	93.007885 
2931.290339  	92.934926 
2932.727246  	92.885461 
2934.164153  	92.801432 
2935.601060  	92.722757 
2937.037967  	92.657636 
2938.474874  	92.575473 
2939.911781  	92.479873 
2941.348688  	92.389985 
2942.785595  	92.335649 
2944.222502  	92.270969 
2945.659409  	92.155706 
2947.096316  	92.064189 
2948.533223  	92.001469 
2949.970130  	91.924774 
2951.407037  	91.845891 
2952.843944  	91.730797 
2954.280851  	91.594926 
2955.717758  	91.495036 
2957.154665  	91.390426 
2958.591572  	91.281329 
2960.028479  	91.192138 
2961.465387  	91.085859 
2962.902294  	90.981895 
2964.339201  	90.889833 
2965.776108  	90.781246 
2967.213015  	90.685759 
2968.649922  	90.602725 
2970.086829  	90.491528 
2971.523736  	90.360998 
2972.960643  	90.244890 
2974.397550  	90.141919 
2975.834457  	90.021639 
2977.271364  	89.907002 
2978.708271  	89.819128 
2980.145178  	89.705251 
2981.582085  	89.562425 
2983.018992  	89.422636 
2984.455899  	89.286536 
2985.892806  	89.163118 
2987.329713  	89.027186 
2988.766620  	88.883627 
2990.203527  	88.772142 
2991.640434  	88.650525 
2993.077341  	88.511631 
2994.514248  	88.371577 
2995.951155  	88.195224 
2997.388062  	88.028239 
2998.824969  	87.898832 
3000.261876  	87.767577 
3001.698783  	87.640846 
3003.135690  	87.490255 
3004.572597  	87.306971 
3006.009504  	87.139967 
3007.446411  	86.987465 
3008.883318  	86.850948 
3010.320226  	86.705425 
3011.757133  	86.526692 
3013.194040  	86.370010 
3014.630947  	86.217084 
3016.067854  	86.042350 
3017.504761  	85.879105 
3018.941668  	85.699015 
3020.378575  	85.510778 
3021.815482  	85.330274 
3023.252389  	85.135638 
3024.689296  	84.958125 
3026.126203  	84.776213 
3027.563110  	84.581082 
3029.000017  	84.412322 
3030.436924  	84.232111 
3031.873831  	84.048990 
3033.310738  	83.861106 
3034.747645  	83.648823 
3036.184552  	83.487555 
3037.621459  	83.312982 
3039.058366  	83.073757 
3040.495273  	82.863836 
3041.932180  	82.641430 
3043.369087  	82.425510 
3044.805994  	82.267174 
3046.242901  	82.053171 
3047.679808  	81.816291 
3049.116715  	81.599641 
3050.553622  	81.357722 
3051.990529  	81.157887 
3053.427436  	80.959975 
3054.864343  	80.726761 
3056.301250  	80.513326 
3057.738157  	80.262539 
3059.175064  	80.005875 
3060.611972  	79.775421 
3062.048879  	79.520959 
3063.485786  	79.300996 
3064.922693  	79.079773 
3066.359600  	78.830010 
3067.796507  	78.608204 
3069.233414  	78.331144 
3070.670321  	78.039002 
3072.107228  	77.815403 
3073.544135  	77.591437 
3074.981042  	77.353855 
3076.417949  	77.067621 
3077.854856  	76.770062 
3079.291763  	76.538526 
3080.728670  	76.273445 
3082.165577  	76.003138 
3083.602484  	75.748431 
3085.039391  	75.446804 
3086.476298  	75.209481 
3087.913205  	74.957097 
3089.350112  	74.633290 
3090.787019  	74.389506 
3092.223926  	74.108444 
3093.660833  	73.787290 
3095.097740  	73.537329 
3096.534647  	73.239717 
3097.971554  	72.957939 
3099.408461  	72.700654 
3100.845368  	72.380085 
3102.282275  	72.107669 
3103.719182  	71.814473 
3105.156089  	71.493597 
3106.592996  	71.226455 
3108.029903  	70.894852 
3109.466811  	70.607396 
3110.903718  	70.378820 
3112.340625  	70.049916 
3113.777532  	69.748533 
3115.214439  	69.437151 
3116.651346  	69.079469 
3118.088253  	68.809064 
3119.525160  	68.500498 
3120.962067  	68.182920 
3122.398974  	67.908623 
3123.835881  	67.567118 
3125.272788  	67.282540 
3126.709695  	66.996321 
3128.146602  	66.631803 
3129.583509  	66.337439 
3131.020416  	66.018501 
3132.457323  	65.705087 
3133.894230  	65.460542 
3135.331137  	65.120244 
3136.768044  	64.780126 
3138.204951  	64.476405 
3139.641858  	64.161792 
3141.078765  	63.909562 
3142.515672  	63.598111 
3143.952579  	63.282245 
3145.389486  	63.045134 
3146.826393  	62.738063 
3148.263300  	62.437117 
3149.700207  	62.125491 
3151.137114  	61.769573 
3152.574021  	61.506466 
3154.010928  	61.209510 
3155.447835  	60.908376 
3156.884742  	60.674376 
3158.321649  	60.361833 
3159.758557  	60.086448 
3161.195464  	59.803506 
3162.632371  	59.458042 
3164.069278  	59.235328 
3165.506185  	58.964156 
3166.943092  	58.665398 
3168.379999  	58.455558 
3169.816906  	58.122878 
3171.253813  	57.834319 
3172.690720  	57.619344 
3174.127627  	57.302056 
3175.564534  	57.067734 
3177.001441  	56.814601 
3178.438348  	56.518439 
3179.875255  	56.343508 
3181.312162  	56.097797 
3182.749069  	55.855600 
3184.185976  	55.643601 
3185.622883  	55.335071 
3187.059790  	55.113749 
3188.496697  	54.868873 
3189.933604  	54.611751 
3191.370511  	54.499793 
3192.807418  	54.269118 
3194.244325  	54.032443 
3195.681232  	53.857793 
3197.118139  	53.563705 
3198.555046  	53.409545 
3199.991953  	53.276064 
3201.428860  	53.033746 
3202.865767  	52.921084 
3204.302674  	52.727810 
3205.739581  	52.515270 
3207.176488  	52.426950 
3208.613395  	52.229234 
3210.050303  	52.088054 
3211.487210  	51.962499 
3212.924117  	51.713805 
3214.361024  	51.595271 
3215.797931  	51.483892 
3217.234838  	51.331281 
3218.671745  	51.217299 
3220.108652  	51.024207 
3221.545559  	50.930891 
3222.982466  	50.863069 
3224.419373  	50.708309 
3225.856280  	50.635856 
3227.293187  	50.488449 
3228.730094  	50.389450 
3230.167001  	50.411446 
3231.603908  	50.253919 
3233.040815  	50.156537 
3234.477722  	50.118112 
3235.914629  	49.973097 
3237.351536  	49.961910 
3238.788443  	49.884276 
3240.225350  	49.756227 
3241.662257  	49.762746 
3243.099164  	49.641134 
3244.536071  	49.581941 
3245.972978  	49.596154 
3247.409885  	49.461053 
3248.846792  	49.465599 
3250.283699  	49.450096 
3251.720606  	49.326342 
3253.157513  	49.348615 
3254.594420  	49.299385 
3256.031327  	49.238808 
3257.468234  	49.243187 
3258.905142  	49.172058 
3260.342049  	49.220274 
3261.778956  	49.221587 
3263.215863  	49.126255 
3264.652770  	49.165907 
3266.089677  	49.127120 
3267.526584  	49.103874 
3268.963491  	49.140039 
3270.400398  	49.026368 
3271.837305  	49.007851 
3273.274212  	49.032197 
3274.711119  	49.033883 
3276.148026  	49.123508 
3277.584933  	49.027049 
3279.021840  	48.962677 
3280.458747  	49.031927 
3281.895654  	48.923120 
3283.332561  	48.925542 
3284.769468  	48.975168 
3286.206375  	48.886597 
3287.643282  	48.943510 
3289.080189  	48.933454 
3290.517096  	48.858716 
3291.954003  	48.903157 
3293.390910  	48.848854 
3294.827817  	48.868607 
3296.264724  	48.921506 
3297.701631  	48.844933 
3299.138538  	48.885256 
3300.575445  	48.878552 
3302.012352  	48.826717 
3303.449259  	48.878253 
3304.886166  	48.805234 
3306.323073  	48.784770 
3307.759980  	48.835690 
3309.196888  	48.791850 
3310.633795  	48.843260 
3312.070702  	48.834483 
3313.507609  	48.806349 
3314.944516  	48.901412 
3316.381423  	48.839875 
3317.818330  	48.807957 
3319.255237  	48.855572 
3320.692144  	48.780286 
3322.129051  	48.803873 
3323.565958  	48.807735 
3325.002865  	48.749192 
3326.439772  	48.788099 
3327.876679  	48.739921 
3329.313586  	48.767020 
3330.750493  	48.845528 
3332.187400  	48.760983 
3333.624307  	48.783344 
3335.061214  	48.808288 
3336.498121  	48.773995 
3337.935028  	48.847087 
3339.371935  	48.809599 
3340.808842  	48.820257 
3342.245749  	48.902053 
3343.682656  	48.832967 
3345.119563  	48.888026 
3346.556470  	48.956857 
3347.993377  	48.934014 
3349.430284  	49.016340 
3350.867191  	49.010298 
3352.304098  	49.046688 
3353.741005  	49.145125 
3355.177912  	49.087460 
3356.614819  	49.178112 
3358.051726  	49.267688 
3359.488634  	49.218034 
3360.925541  	49.329736 
3362.362448  	49.383741 
3363.799355  	49.427633 
3365.236262  	49.536970 
3366.673169  	49.467331 
3368.110076  	49.523984 
3369.546983  	49.646117 
3370.983890  	49.668830 
3372.420797  	49.856900 
3373.857704  	49.951155 
3375.294611  	49.963546 
3376.731518  	50.091640 
3378.168425  	50.127182 
3379.605332  	50.257129 
3381.042239  	50.387990 
3382.479146  	50.386047 
3383.916053  	50.583189 
3385.352960  	50.706808 
3386.789867  	50.722027 
3388.226774  	50.918653 
3389.663681  	51.023725 
3391.100588  	51.115313 
3392.537495  	51.264678 
3393.974402  	51.347456 
3395.411309  	51.537702 
3396.848216  	51.663388 
3398.285123  	51.761279 
3399.722030  	51.969675 
3401.158937  	52.031005 
3402.595844  	52.173512 
3404.032751  	52.415864 
3405.469658  	52.523008 
3406.906565  	52.725236 
3408.343473  	52.884244 
3409.780380  	53.006232 
3411.217287  	53.266637 
3412.654194  	53.384356 
3414.091101  	53.544573 
3415.528008  	53.800088 
3416.964915  	53.923491 
3418.401822  	54.177211 
3419.838729  	54.393227 
3421.275636  	54.504802 
3422.712543  	54.801349 
3424.149450  	54.965279 
3425.586357  	55.062795 
3427.023264  	55.281939 
3428.460171  	55.427714 
3429.897078  	55.666222 
3431.333985  	55.931327 
3432.770892  	56.116834 
3434.207799  	56.357134 
3435.644706  	56.497064 
3437.081613  	56.712602 
3438.518520  	57.015302 
3439.955427  	57.108187 
3441.392334  	57.291525 
3442.829241  	57.576382 
3444.266148  	57.785417 
3445.703055  	58.063927 
3447.139962  	58.284917 
3448.576869  	58.535007 
3450.013776  	58.785209 
3451.450683  	58.847469 
3452.887590  	59.062930 
3454.324497  	59.333504 
3455.761404  	59.494700 
3457.198311  	59.819342 
3458.635219  	60.041362 
3460.072126  	60.175229 
3461.509033  	60.465209 
3462.945940  	60.656169 
3464.382847  	60.860396 
3465.819754  	61.115025 
3467.256661  	61.284175 
3468.693568  	61.538062 
3470.130475  	61.742834 
3471.567382  	61.950285 
3473.004289  	62.271741 
3474.441196  	62.454654 
3475.878103  	62.656507 
3477.315010  	62.874685 
3478.751917  	62.969482 
3480.188824  	63.227585 
3481.625731  	63.530387 
3483.062638  	63.767811 
3484.499545  	64.048272 
3485.936452  	64.205530 
3487.373359  	64.421297 
3488.810266  	64.724182 
3490.247173  	64.888992 
3491.684080  	65.099874 
3493.120987  	65.308014 
3494.557894  	65.504366 
3495.994801  	65.824320 
3497.431708  	66.052303 
3498.868615  	66.252958 
3500.305522  	66.478953 
3501.742429  	66.615072 
3503.179336  	66.872354 
3504.616243  	67.183630 
3506.053150  	67.430240 
3507.490058  	67.710856 
3508.926965  	67.922569 
3510.363872  	68.152200 
3511.800779  	68.372082 
3513.237686  	68.489091 
3514.674593  	68.716677 
3516.111500  	68.935444 
3517.548407  	69.120716 
3518.985314  	69.437117 
3520.422221  	69.668968 
3521.859128  	69.875655 
3523.296035  	70.134111 
3524.732942  	70.274900 
3526.169849  	70.491107 
3527.606756  	70.783778 
3529.043663  	71.060765 
3530.480570  	71.338139 
3531.917477  	71.488934 
3533.354384  	71.677918 
3534.791291  	71.929852 
3536.228198  	72.109272 
3537.665105  	72.391997 
3539.102012  	72.648556 
3540.538919  	72.826531 
3541.975826  	73.081927 
3543.412733  	73.259810 
3544.849640  	73.460695 
3546.286547  	73.806777 
3547.723454  	74.079797 
3549.160361  	74.307616 
3550.597268  	74.490017 
3552.034175  	74.678289 
3553.471082  	74.983449 
3554.907989  	75.176837 
3556.344896  	75.342227 
3557.781804  	75.580835 
3559.218711  	75.734040 
3560.655618  	75.973432 
3562.092525  	76.262716 
3563.529432  	76.414146 
3564.966339  	76.607633 
3566.403246  	76.840431 
3567.840153  	77.186865 
3569.277060  	77.539862 
3570.713967  	77.643420 
3572.150874  	77.824610 
3573.587781  	78.055961 
3575.024688  	78.189597 
3576.461595  	78.442241 
3577.898502  	78.706670 
3579.335409  	78.904362 
3580.772316  	79.152947 
3582.209223  	79.346666 
3583.646130  	79.547715 
3585.083037  	79.708905 
3586.519944  	79.803339 
3587.956851  	80.147241 
3589.393758  	80.468104 
3590.830665  	80.591674 
3592.267572  	80.784996 
3593.704479  	80.961573 
3595.141386  	81.223747 
3596.578293  	81.491602 
3598.015200  	81.564472 
3599.452107  	81.720820 
3600.889014  	81.976916 
3602.325921  	82.223947 
3603.762828  	82.437812 
3605.199735  	82.531719 
3606.636642  	82.717060 
3608.073550  	83.033039 
3609.510457  	83.214454 
3610.947364  	83.402982 
3612.384271  	83.606709 
3613.821178  	83.799953 
3615.258085  	84.007169 
3616.694992  	84.088859 
3618.131899  	84.286465 
3619.568806  	84.647187 
3621.005713  	84.818292 
3622.442620  	85.006302 
3623.879527  	85.185465 
3625.316434  	85.326645 
3626.753341  	85.597906 
3628.190248  	85.864204 
3629.627155  	86.164370 
3631.064062  	86.394154 
3632.500969  	86.476139 
3633.937876  	86.722522 
3635.374783  	87.011430 
3636.811690  	87.147987 
3638.248597  	87.354218 
3639.685504  	87.622730 
3641.122411  	87.913466 
3642.559318  	88.212471 
3643.996225  	88.401867 
3645.433132  	88.601890 
3646.870039  	88.831591 
3648.306946  	89.070624 
3649.743853  	89.419139 
3651.180760  	89.670249 
3652.617667  	89.929654 
3654.054574  	90.177704 
3655.491481  	90.373475 
3656.928389  	90.705402 
3658.365296  	90.996532 
3659.802203  	91.216572 
3661.239110  	91.531204 
3662.676017  	91.752819 
3664.112924  	91.964818 
3665.549831  	92.215957 
3666.986738  	92.428685 
3668.423645  	92.661592 
3669.860552  	92.884935 
3671.297459  	93.053306 
3672.734366  	93.333461 
3674.171273  	93.576195 
3675.608180  	93.797077 
3677.045087  	94.043159 
3678.481994  	94.196276 
3679.918901  	94.394770 
3681.355808  	94.615350 
3682.792715  	94.815403 
3684.229622  	95.002263 
3685.666529  	95.156085 
3687.103436  	95.300654 
3688.540343  	95.487074 
3689.977250  	95.596001 
3691.414157  	95.697635 
3692.851064  	95.828656 
3694.287971  	95.952495 
3695.724878  	96.116164 
3697.161785  	96.238279 
3698.598692  	96.362658 
3700.035599  	96.483524 
3701.472506  	96.569870 
3702.909413  	96.633576 
3704.346320  	96.691656 
3705.783227  	96.746842 
3707.220135  	96.852727 
3708.657042  	96.932782 
3710.093949  	96.990734 
3711.530856  	97.076264 
3712.967763  	97.091962 
3714.404670  	97.132028 
3715.841577  	97.208601 
3717.278484  	97.274307 
3718.715391  	97.350256 
3720.152298  	97.404198 
3721.589205  	97.460784 
3723.026112  	97.509435 
3724.463019  	97.492912 
3725.899926  	97.514133 
3727.336833  	97.563187 
3728.773740  	97.584311 
3730.210647  	97.659338 
3731.647554  	97.683028 
3733.084461  	97.690332 
3734.521368  	97.787563 
3735.958275  	97.782280 
3737.395182  	97.718434 
3738.832089  	97.756817 
3740.268996  	97.761431 
3741.705903  	97.778067 
3743.142810  	97.846658 
3744.579717  	97.877336 
3746.016624  	97.808677 
3747.453531  	97.822519 
3748.890438  	97.857453 
3750.327345  	97.839735 
3751.764252  	97.810103 
3753.201159  	97.827477 
3754.638066  	97.862348 
3756.074973  	97.893992 
3757.511881  	97.928670 
3758.948788  	97.924634 
3760.385695  	97.918860 
3761.822602  	97.905435 
3763.259509  	97.914110 
3764.696416  	97.965956 
3766.133323  	97.983778 
3767.570230  	97.987110 
3769.007137  	98.025918 
3770.444044  	98.016825 
3771.880951  	97.998032 
3773.317858  	98.013995 
3774.754765  	98.023443 
3776.191672  	98.045539 
3777.628579  	98.085584 
3779.065486  	98.088907 
3780.502393  	98.096878 
3781.939300  	98.089701 
3783.376207  	98.098096 
3784.813114  	98.148049 
3786.250021  	98.172807 
3787.686928  	98.147887 
3789.123835  	98.135007 
3790.560742  	98.184083 
3791.997649  	98.098937 
3793.434556  	98.207759 
3794.871463  	98.199315 
3796.308370  	98.222638 
3797.745277  	98.155519 
3799.182184  	98.223739 
3800.619091  	98.368154 
3802.055998  	98.284166 
3803.492905  	98.121761 
3804.929812  	98.207925 
3806.366720  	98.300436 
3807.803627  	98.268363 
3809.240534  	98.211643 
3810.677441  	98.259276 
3812.114348  	98.252781 
3813.551255  	98.226677 
3814.988162  	98.313361 
3816.425069  	98.381850 
3817.861976  	98.333760 
3819.298883  	98.368478 
3820.735790  	98.373369 
3822.172697  	98.223017 
3823.609604  	98.170067 
3825.046511  	98.250820 
3826.483418  	98.345805 
3827.920325  	98.348199 
3829.357232  	98.343799 
3830.794139  	98.360748 
3832.231046  	98.303293 
3833.667953  	98.304112 
3835.104860  	98.341870 
3836.541767  	98.323811 
3837.978674  	98.390410 
3839.415581  	98.399752 
3840.852488  	98.290323 
3842.289395  	98.276102 
3843.726302  	98.254449 
3845.163209  	98.264856 
3846.600116  	98.349262 
3848.037023  	98.359471 
3849.473930  	98.347590 
3850.910837  	98.415776 
3852.347744  	98.499402 
3853.784651  	98.367734 
3855.221558  	98.092953 
3856.658466  	98.212370 
3858.095373  	98.347625 
3859.532280  	98.377778 
3860.969187  	98.369706 
3862.406094  	98.358169 
3863.843001  	98.434029 
3865.279908  	98.484090 
3866.716815  	98.321730 
3868.153722  	98.341136 
3869.590629  	98.494905 
3871.027536  	98.376423 
3872.464443  	98.301998 
3873.901350  	98.398267 
3875.338257  	98.398570 
3876.775164  	98.363798 
3878.212071  	98.389241 
3879.648978  	98.451981 
3881.085885  	98.433300 
3882.522792  	98.281877 
3883.959699  	98.324683 
3885.396606  	98.422416 
3886.833513  	98.304558 
3888.270420  	98.290677 
3889.707327  	98.389970 
3891.144234  	98.400940 
3892.581141  	98.326894 
3894.018048  	98.310269 
3895.454955  	98.361292 
3896.891862  	98.393685 
3898.328769  	98.382574 
3899.765676  	98.399981 
3901.202583  	98.415445 
3902.639490  	98.420510 
3904.076397  	98.407176 
3905.513305  	98.325130 
3906.950212  	98.358545 
3908.387119  	98.421017 
3909.824026  	98.413892 
3911.260933  	98.449249 
3912.697840  	98.457912 
3914.134747  	98.390231 
3915.571654  	98.362401 
3917.008561  	98.350945 
3918.445468  	98.389029 
3919.882375  	98.409369 
3921.319282  	98.318691 
3922.756189  	98.347494 
3924.193096  	98.438648 
3925.630003  	98.366826 
3927.066910  	98.319512 
3928.503817  	98.368216 
3929.940724  	98.397596 
3931.377631  	98.418907 
3932.814538  	98.408212 
3934.251445  	98.380753 
3935.688352  	98.371414 
3937.125259  	98.364601 
3938.562166  	98.356201 
3939.999073  	98.334384 
3941.435980  	98.385630 
3942.872887  	98.479108 
3944.309794  	98.412913 
3945.746701  	98.360174 
3947.183608  	98.418295 
3948.620515  	98.406412 
3950.057422  	98.367966 
3951.494329  	98.373931 
3952.931236  	98.354949 
3954.368143  	98.353300 
3955.805051  	98.376921 
3957.241958  	98.383647 
3958.678865  	98.394885 
3960.115772  	98.365011 
3961.552679  	98.374250 
3962.989586  	98.393919 
3964.426493  	98.378011 
3965.863400  	98.388556 
3967.300307  	98.394610 
3968.737214  	98.367981 
3970.174121  	98.369411 
3971.611028  	98.392801 
3973.047935  	98.400837 
3974.484842  	98.385117 
3975.921749  	98.362922 
3977.358656  	98.360464 
3978.795563  	98.381503 
3980.232470  	98.422068 
3981.669377  	98.436760 
3983.106284  	98.413110 
3984.543191  	98.403321 
3985.980098  	98.399267 
3987.417005  	98.396909 
3988.853912  	98.401781 
3990.290819  	98.391663 
3991.727726  	98.387844 
3993.164633  	98.380999 
3994.601540  	98.389582 
3996.038447  	98.436071 
3997.475354  	98.421394 
3998.912261  	98.392948 
4000.349168  	98.425856 