##TITLE=No Description
##DATA TYPE=INFRARED SPECTRUM
##XUNITS=1/CM
##YUNITS=%T
399.460154  	30.716147 
400.897061  	29.954488 
402.333968  	30.531472 
403.770875  	30.437356 
405.207782  	30.250836 
406.644689  	30.167801 
408.081596  	29.760836 
409.518503  	30.331131 
410.955410  	30.979213 
412.392317  	30.261734 
413.829224  	29.664003 
415.266131  	29.377687 
416.703038  	29.373468 
418.139945  	30.611459 
419.576852  	31.008990 
421.013759  	29.779340 
422.450666  	29.772867 
423.887574  	30.539564 
425.324481  	30.843763 
426.761388  	30.361126 
428.198295  	30.180816 
429.635202  	30.344940 
431.072109  	30.629072 
432.509016  	30.986097 
433.945923  	30.427178 
435.382830  	30.115077 
436.819737  	31.216420 
438.256644  	31.342704 
439.693551  	30.562339 
441.130458  	30.705824 
442.567365  	31.117959 
444.004272  	31.040304 
445.441179  	31.023163 
446.878086  	31.128023 
448.314993  	31.263669 
449.751900  	31.172037 
451.188807  	30.993770 
452.625714  	31.068750 
454.062621  	31.019000 
455.499528  	31.362920 
456.936435  	32.219751 
458.373342  	32.127311 
459.810249  	31.384241 
461.247156  	31.083556 
462.684063  	31.028279 
464.120970  	30.892438 
465.557877  	30.772848 
466.994784  	30.979223 
468.431691  	31.351209 
469.868598  	31.529290 
471.305505  	31.386902 
472.742413  	31.042319 
474.179320  	30.992828 
475.616227  	30.999085 
477.053134  	30.943083 
478.490041  	31.102060 
479.926948  	31.058866 
481.363855  	30.968983 
482.800762  	31.283857 
484.237669  	31.539570 
485.674576  	31.698013 
487.111483  	31.966724 
488.548390  	32.127890 
489.985297  	32.124469 
491.422204  	31.875211 
492.859111  	31.680225 
494.296018  	31.735498 
495.732925  	31.735875 
497.169832  	31.794566 
498.606739  	31.836546 
500.043646  	31.762519 
501.480553  	31.955032 
502.917460  	31.991160 
504.354367  	31.733216 
505.791274  	31.808105 
507.228181  	31.884349 
508.665088  	31.840406 
510.101995  	32.073613 
511.538902  	32.393605 
512.975809  	32.529467 
514.412716  	32.431626 
515.849623  	32.370169 
517.286530  	32.446714 
518.723437  	32.322192 
520.160344  	32.298896 
521.597251  	32.507246 
523.034159  	32.520087 
524.471066  	32.623315 
525.907973  	32.873717 
527.344880  	32.884551 
528.781787  	32.883981 
530.218694  	32.929633 
531.655601  	32.922896 
533.092508  	32.937890 
534.529415  	32.867921 
535.966322  	32.811638 
537.403229  	32.922391 
538.840136  	33.100594 
540.277043  	33.230807 
541.713950  	33.310849 
543.150857  	33.526595 
544.587764  	33.681100 
546.024671  	33.585478 
547.461578  	33.635641 
548.898485  	33.763113 
550.335392  	33.786509 
551.772299  	33.986899 
553.209206  	34.155806 
554.646113  	34.111581 
556.083020  	34.116305 
557.519927  	34.196632 
558.956834  	34.360095 
560.393741  	34.537193 
561.830648  	34.601761 
563.267555  	34.661020 
564.704462  	34.684559 
566.141369  	34.717409 
567.578276  	34.903783 
569.015183  	35.077881 
570.452090  	35.137787 
571.888997  	35.185984 
573.325905  	35.286773 
574.762812  	35.363177 
576.199719  	35.367682 
577.636626  	35.534590 
579.073533  	35.759442 
580.510440  	35.782301 
581.947347  	35.851282 
583.384254  	36.012032 
584.821161  	36.089214 
586.258068  	36.206808 
587.694975  	36.297880 
589.131882  	36.353496 
590.568789  	36.519573 
592.005696  	36.665254 
593.442603  	36.802185 
594.879510  	36.955623 
596.316417  	36.992987 
597.753324  	37.047022 
599.190231  	37.190011 
600.627138  	37.345461 
602.064045  	37.522541 
603.500952  	37.682386 
604.937859  	37.826750 
606.374766  	37.956230 
607.811673  	37.981282 
609.248580  	38.058966 
610.685487  	38.171162 
612.122394  	38.277723 
613.559301  	38.452019 
614.996208  	38.625713 
616.433115  	38.800675 
617.870022  	39.008888 
619.306929  	39.122496 
620.743836  	39.184646 
622.180744  	39.286778 
623.617651  	39.434929 
625.054558  	39.603512 
626.491465  	39.730625 
627.928372  	39.871072 
629.365279  	40.036425 
630.802186  	40.160114 
632.239093  	40.332414 
633.676000  	40.494237 
635.112907  	40.581405 
636.549814  	40.725662 
637.986721  	40.899851 
639.423628  	40.996564 
640.860535  	41.130539 
642.297442  	41.310419 
643.734349  	41.485266 
645.171256  	41.654035 
646.608163  	41.808012 
648.045070  	41.976463 
649.481977  	42.105253 
650.918884  	42.209026 
652.355791  	42.401141 
653.792698  	42.599311 
655.229605  	42.762067 
656.666512  	42.955534 
658.103419  	43.120957 
659.540326  	43.247212 
660.977233  	43.423669 
662.414140  	43.623861 
663.851047  	43.788309 
665.287954  	43.861514 
666.724861  	43.967637 
668.161768  	44.227284 
669.598675  	44.552327 
671.035582  	44.668308 
672.472490  	44.778981 
673.909397  	44.990259 
675.346304  	45.205698 
676.783211  	45.366263 
678.220118  	45.540985 
679.657025  	45.722501 
681.093932  	45.905013 
682.530839  	46.102488 
683.967746  	46.314399 
685.404653  	46.547525 
686.841560  	46.732802 
688.278467  	46.844364 
689.715374  	47.010074 
691.152281  	47.204243 
692.589188  	47.365943 
694.026095  	47.581430 
695.463002  	47.814076 
696.899909  	48.022069 
698.336816  	48.228895 
699.773723  	48.434957 
701.210630  	48.634981 
702.647537  	48.821591 
704.084444  	49.039738 
705.521351  	49.277072 
706.958258  	49.474685 
708.395165  	49.637456 
709.832072  	49.827637 
711.268979  	50.055549 
712.705886  	50.279558 
714.142793  	50.481144 
715.579700  	50.686429 
717.016607  	50.901738 
718.453514  	51.096408 
719.890421  	51.320986 
721.327328  	51.551216 
722.764236  	51.712609 
724.201143  	51.875239 
725.638050  	52.078426 
727.074957  	52.301162 
728.511864  	52.534119 
729.948771  	52.726525 
731.385678  	52.895546 
732.822585  	53.148649 
734.259492  	53.424351 
735.696399  	53.632440 
737.133306  	53.838849 
738.570213  	54.105722 
740.007120  	54.389804 
741.444027  	54.620667 
742.880934  	54.805610 
744.317841  	54.996978 
745.754748  	55.219650 
747.191655  	55.491967 
748.628562  	55.779512 
750.065469  	56.023617 
751.502376  	56.260130 
752.939283  	56.498469 
754.376190  	56.668626 
755.813097  	56.815510 
757.250004  	57.041833 
758.686911  	57.315606 
760.123818  	57.568881 
761.560725  	57.812244 
762.997632  	58.070808 
764.434539  	58.335884 
765.871446  	58.551989 
767.308353  	58.711311 
768.745260  	58.911264 
770.182167  	59.165853 
771.619075  	59.416408 
773.055982  	59.686065 
774.492889  	59.946673 
775.929796  	60.157796 
777.366703  	60.379960 
778.803610  	60.622421 
780.240517  	60.874203 
781.677424  	61.131239 
783.114331  	61.332043 
784.551238  	61.532355 
785.988145  	61.816467 
787.425052  	62.110550 
788.861959  	62.374774 
790.298866  	62.624920 
791.735773  	62.838656 
793.172680  	63.050677 
794.609587  	63.297933 
796.046494  	63.545416 
797.483401  	63.785934 
798.920308  	64.068259 
800.357215  	64.384536 
801.794122  	64.649012 
803.231029  	64.852398 
804.667936  	65.070757 
806.104843  	65.330562 
807.541750  	65.584802 
808.978657  	65.790397 
810.415564  	65.999316 
811.852471  	66.274601 
813.289378  	66.588461 
814.726285  	66.898209 
816.163192  	67.150818 
817.600099  	67.351871 
819.037006  	67.585541 
820.473913  	67.823342 
821.910821  	68.060563 
823.347728  	68.349265 
824.784635  	68.614222 
826.221542  	68.863833 
827.658449  	69.123711 
829.095356  	69.325083 
830.532263  	69.558587 
831.969170  	69.848768 
833.406077  	70.100811 
834.842984  	70.348453 
836.279891  	70.567985 
837.716798  	70.773641 
839.153705  	71.040759 
840.590612  	71.297036 
842.027519  	71.579640 
843.464426  	71.917454 
844.901333  	72.171436 
846.338240  	72.364966 
847.775147  	72.567724 
849.212054  	72.805783 
850.648961  	73.102915 
852.085868  	73.355964 
853.522775  	73.583620 
854.959682  	73.857288 
856.396589  	74.093502 
857.833496  	74.325910 
859.270403  	74.584715 
860.707310  	74.808679 
862.144217  	75.041515 
863.581124  	75.277999 
865.018031  	75.502521 
866.454938  	75.759179 
867.891845  	76.015964 
869.328752  	76.247650 
870.765660  	76.449116 
872.202567  	76.653103 
873.639474  	76.907465 
875.076381  	77.151012 
876.513288  	77.377951 
877.950195  	77.608206 
879.387102  	77.798651 
880.824009  	78.001142 
882.260916  	78.237984 
883.697823  	78.482258 
885.134730  	78.720220 
886.571637  	78.888371 
888.008544  	79.058413 
889.445451  	79.282602 
890.882358  	79.470156 
892.319265  	79.673020 
893.756172  	79.902093 
895.193079  	80.080945 
896.629986  	80.253609 
898.066893  	80.423647 
899.503800  	80.602610 
900.940707  	80.791872 
902.377614  	80.933813 
903.814521  	81.106756 
905.251428  	81.306127 
906.688335  	81.457076 
908.125242  	81.630792 
909.562149  	81.806395 
910.999056  	81.972262 
912.435963  	82.159765 
913.872870  	82.287545 
915.309777  	82.430146 
916.746684  	82.644693 
918.183591  	82.817353 
919.620498  	82.975793 
921.057406  	83.136848 
922.494313  	83.261462 
923.931220  	83.394712 
925.368127  	83.534685 
926.805034  	83.692441 
928.241941  	83.862453 
929.678848  	83.995429 
931.115755  	84.132766 
932.552662  	84.278948 
933.989569  	84.409414 
935.426476  	84.523869 
936.863383  	84.611276 
938.300290  	84.721106 
939.737197  	84.831397 
941.174104  	84.937903 
942.611011  	85.112345 
944.047918  	85.230293 
945.484825  	85.284812 
946.921732  	85.422300 
948.358639  	85.533242 
949.795546  	85.598364 
951.232453  	85.723834 
952.669360  	85.845136 
954.106267  	85.953602 
955.543174  	86.060306 
956.980081  	86.149915 
958.416988  	86.249318 
959.853895  	86.332337 
961.290802  	86.443939 
962.727709  	86.562282 
964.164616  	86.587050 
965.601523  	86.641559 
967.038430  	86.752022 
968.475337  	86.824711 
969.912244  	86.919947 
971.349152  	86.994681 
972.786059  	87.031135 
974.222966  	87.109610 
975.659873  	87.169629 
977.096780  	87.238554 
978.533687  	87.352094 
979.970594  	87.414757 
981.407501  	87.464307 
982.844408  	87.536038 
984.281315  	87.590518 
985.718222  	87.650721 
987.155129  	87.709770 
988.592036  	87.751730 
990.028943  	87.778864 
991.465850  	87.820321 
992.902757  	87.909262 
994.339664  	87.970860 
995.776571  	87.986967 
997.213478  	88.012328 
998.650385  	88.033389 
1000.087292  	88.078091 
1001.524199  	88.132606 
1002.961106  	88.141556 
1004.398013  	88.152817 
1005.834920  	88.172651 
1007.271827  	88.198625 
1008.708734  	88.254297 
1010.145641  	88.295299 
1011.582548  	88.327562 
1013.019455  	88.358015 
1014.456362  	88.383741 
1015.893269  	88.442016 
1017.330176  	88.487734 
1018.767083  	88.536360 
1020.203991  	88.611905 
1021.640898  	88.627673 
1023.077805  	88.650506 
1024.514712  	88.703394 
1025.951619  	88.684227 
1027.388526  	88.671867 
1028.825433  	88.681777 
1030.262340  	88.657519 
1031.699247  	88.658795 
1033.136154  	88.655361 
1034.573061  	88.643633 
1036.009968  	88.668093 
1037.446875  	88.681682 
1038.883782  	88.715127 
1040.320689  	88.757771 
1041.757596  	88.752084 
1043.194503  	88.780987 
1044.631410  	88.864299 
1046.068317  	88.942492 
1047.505224  	88.981786 
1048.942131  	88.993514 
1050.379038  	89.066313 
1051.815945  	89.144275 
1053.252852  	89.153457 
1054.689759  	89.191593 
1056.126666  	89.236391 
1057.563573  	89.252618 
1059.000480  	89.296865 
1060.437387  	89.329617 
1061.874294  	89.363924 
1063.311201  	89.419185 
1064.748108  	89.440446 
1066.185015  	89.447818 
1067.621922  	89.446194 
1069.058829  	89.446414 
1070.495737  	89.467244 
1071.932644  	89.466736 
1073.369551  	89.479800 
1074.806458  	89.505282 
1076.243365  	89.502590 
1077.680272  	89.525834 
1079.117179  	89.538136 
1080.554086  	89.512716 
1081.990993  	89.516839 
1083.427900  	89.528255 
1084.864807  	89.529492 
1086.301714  	89.519291 
1087.738621  	89.504191 
1089.175528  	89.521145 
1090.612435  	89.507950 
1092.049342  	89.473473 
1093.486249  	89.490231 
1094.923156  	89.507300 
1096.360063  	89.532091 
1097.796970  	89.566402 
1099.233877  	89.568170 
1100.670784  	89.586693 
1102.107691  	89.583406 
1103.544598  	89.553482 
1104.981505  	89.585441 
1106.418412  	89.622842 
1107.855319  	89.649805 
1109.292226  	89.688999 
1110.729133  	89.688402 
1112.166040  	89.691364 
1113.602947  	89.698136 
1115.039854  	89.682804 
1116.476761  	89.711063 
1117.913668  	89.754417 
1119.350575  	89.772160 
1120.787483  	89.777202 
1122.224390  	89.785302 
1123.661297  	89.828176 
1125.098204  	89.831273 
1126.535111  	89.800529 
1127.972018  	89.844837 
1129.408925  	89.878443 
1130.845832  	89.867475 
1132.282739  	89.878354 
1133.719646  	89.870409 
1135.156553  	89.873909 
1136.593460  	89.898103 
1138.030367  	89.898497 
1139.467274  	89.914117 
1140.904181  	89.903794 
1142.341088  	89.871995 
1143.777995  	89.897659 
1145.214902  	89.924514 
1146.651809  	89.935323 
1148.088716  	89.946436 
1149.525623  	89.934976 
1150.962530  	89.933034 
1152.399437  	89.913869 
1153.836344  	89.886345 
1155.273251  	89.908672 
1156.710158  	89.913916 
1158.147065  	89.887657 
1159.583972  	89.865568 
1161.020879  	89.847881 
1162.457786  	89.873526 
1163.894693  	89.890084 
1165.331600  	89.865544 
1166.768507  	89.865172 
1168.205414  	89.856411 
1169.642322  	89.842488 
1171.079229  	89.853171 
1172.516136  	89.842367 
1173.953043  	89.841101 
1175.389950  	89.853118 
1176.826857  	89.846937 
1178.263764  	89.853618 
1179.700671  	89.849028 
1181.137578  	89.846489 
1182.574485  	89.861493 
1184.011392  	89.834809 
1185.448299  	89.819405 
1186.885206  	89.834034 
1188.322113  	89.812520 
1189.759020  	89.798401 
1191.195927  	89.803781 
1192.632834  	89.799514 
1194.069741  	89.794829 
1195.506648  	89.780848 
1196.943555  	89.794249 
1198.380462  	89.824631 
1199.817369  	89.811367 
1201.254276  	89.791380 
1202.691183  	89.771824 
1204.128090  	89.745384 
1205.564997  	89.749990 
1207.001904  	89.757170 
1208.438811  	89.759915 
1209.875718  	89.770170 
1211.312625  	89.762512 
1212.749532  	89.763203 
1214.186439  	89.773848 
1215.623346  	89.769396 
1217.060253  	89.765404 
1218.497160  	89.756204 
1219.934068  	89.748433 
1221.370975  	89.747063 
1222.807882  	89.743035 
1224.244789  	89.759345 
1225.681696  	89.767809 
1227.118603  	89.745375 
1228.555510  	89.734368 
1229.992417  	89.734187 
1231.429324  	89.733619 
1232.866231  	89.731602 
1234.303138  	89.725834 
1235.740045  	89.736935 
1237.176952  	89.742054 
1238.613859  	89.729613 
1240.050766  	89.726576 
1241.487673  	89.716963 
1242.924580  	89.703854 
1244.361487  	89.698289 
1245.798394  	89.689962 
1247.235301  	89.688814 
1248.672208  	89.676804 
1250.109115  	89.656797 
1251.546022  	89.653877 
1252.982929  	89.646755 
1254.419836  	89.644565 
1255.856743  	89.646573 
1257.293650  	89.630335 
1258.730557  	89.619543 
1260.167464  	89.608765 
1261.604371  	89.611555 
1263.041278  	89.639685 
1264.478185  	89.631701 
1265.915092  	89.608748 
1267.351999  	89.601178 
1268.788907  	89.583850 
1270.225814  	89.592956 
1271.662721  	89.598701 
1273.099628  	89.568364 
1274.536535  	89.565022 
1275.973442  	89.566946 
1277.410349  	89.552943 
1278.847256  	89.546196 
1280.284163  	89.535146 
1281.721070  	89.547288 
1283.157977  	89.565630 
1284.594884  	89.562821 
1286.031791  	89.576386 
1287.468698  	89.575054 
1288.905605  	89.566786 
1290.342512  	89.595871 
1291.779419  	89.608778 
1293.216326  	89.605914 
1294.653233  	89.604113 
1296.090140  	89.599348 
1297.527047  	89.630758 
1298.963954  	89.654136 
1300.400861  	89.645267 
1301.837768  	89.648950 
1303.274675  	89.646560 
1304.711582  	89.654834 
1306.148489  	89.670069 
1307.585396  	89.670053 
1309.022303  	89.679888 
1310.459210  	89.694324 
1311.896117  	89.693790 
1313.333024  	89.681701 
1314.769931  	89.671797 
1316.206838  	89.688668 
1317.643745  	89.696123 
1319.080653  	89.676338 
1320.517560  	89.690011 
1321.954467  	89.697387 
1323.391374  	89.690917 
1324.828281  	89.714317 
1326.265188  	89.712626 
1327.702095  	89.703447 
1329.139002  	89.703815 
1330.575909  	89.682756 
1332.012816  	89.672101 
1333.449723  	89.666107 
1334.886630  	89.629397 
1336.323537  	89.629862 
1337.760444  	89.609891 
1339.197351  	89.547928 
1340.634258  	89.540569 
1342.071165  	89.556111 
1343.508072  	89.581804 
1344.944979  	89.600326 
1346.381886  	89.581669 
1347.818793  	89.567597 
1349.255700  	89.550796 
1350.692607  	89.537519 
1352.129514  	89.528164 
1353.566421  	89.505457 
1355.003328  	89.489403 
1356.440235  	89.489965 
1357.877142  	89.470974 
1359.314049  	89.458738 
1360.750956  	89.437086 
1362.187863  	89.393405 
1363.624770  	89.369045 
1365.061677  	89.360893 
1366.498584  	89.352649 
1367.935491  	89.316686 
1369.372399  	89.257971 
1370.809306  	89.223014 
1372.246213  	89.183899 
1373.683120  	89.132383 
1375.120027  	89.098719 
1376.556934  	89.072909 
1377.993841  	89.028099 
1379.430748  	88.997557 
1380.867655  	88.953810 
1382.304562  	88.943741 
1383.741469  	88.933777 
1385.178376  	88.908758 
1386.615283  	88.889711 
1388.052190  	88.865380 
1389.489097  	88.848657 
1390.926004  	88.862876 
1392.362911  	88.868267 
1393.799818  	88.869291 
1395.236725  	88.878438 
1396.673632  	88.885072 
1398.110539  	88.922142 
1399.547446  	88.948370 
1400.984353  	88.964841 
1402.421260  	88.997347 
1403.858167  	89.012159 
1405.295074  	89.024357 
1406.731981  	89.067839 
1408.168888  	89.084981 
1409.605795  	89.101708 
1411.042702  	89.123262 
1412.479609  	89.137691 
1413.916516  	89.173595 
1415.353423  	89.188976 
1416.790330  	89.198481 
1418.227238  	89.238616 
1419.664145  	89.232156 
1421.101052  	89.256949 
1422.537959  	89.296387 
1423.974866  	89.294730 
1425.411773  	89.312278 
1426.848680  	89.345579 
1428.285587  	89.369121 
1429.722494  	89.375591 
1431.159401  	89.337673 
1432.596308  	89.340134 
1434.033215  	89.365238 
1435.470122  	89.348047 
1436.907029  	89.326068 
1438.343936  	89.321446 
1439.780843  	89.330904 
1441.217750  	89.347562 
1442.654657  	89.331075 
1444.091564  	89.356063 
1445.528471  	89.361129 
1446.965378  	89.335681 
1448.402285  	89.327037 
1449.839192  	89.340315 
1451.276099  	89.336951 
1452.713006  	89.327514 
1454.149913  	89.299161 
1455.586820  	89.295994 
1457.023727  	89.295368 
1458.460634  	89.228846 
1459.897541  	89.252645 
1461.334448  	89.270806 
1462.771355  	89.282279 
1464.208262  	89.274736 
1465.645169  	89.231426 
1467.082076  	89.210764 
1468.518984  	89.227978 
1469.955891  	89.217563 
1471.392798  	89.201858 
1472.829705  	89.135997 
1474.266612  	89.107287 
1475.703519  	89.136083 
1477.140426  	89.130304 
1478.577333  	89.130312 
1480.014240  	89.132456 
1481.451147  	89.094890 
1482.888054  	89.069799 
1484.324961  	89.068163 
1485.761868  	89.021275 
1487.198775  	88.983709 
1488.635682  	88.927077 
1490.072589  	88.867206 
1491.509496  	88.856329 
1492.946403  	88.811720 
1494.383310  	88.797932 
1495.820217  	88.774840 
1497.257124  	88.704343 
1498.694031  	88.689264 
1500.130938  	88.649364 
1501.567845  	88.600945 
1503.004752  	88.579754 
1504.441659  	88.546565 
1505.878566  	88.518857 
1507.315473  	88.399841 
1508.752380  	88.286629 
1510.189287  	88.305719 
1511.626194  	88.276700 
1513.063101  	88.237799 
1514.500008  	88.216082 
1515.936915  	88.129563 
1517.373822  	88.037855 
1518.810730  	88.030384 
1520.247637  	87.975000 
1521.684544  	87.926073 
1523.121451  	87.861973 
1524.558358  	87.775055 
1525.995265  	87.721768 
1527.432172  	87.641980 
1528.869079  	87.603288 
1530.305986  	87.568646 
1531.742893  	87.457382 
1533.179800  	87.360294 
1534.616707  	87.229346 
1536.053614  	87.123415 
1537.490521  	87.078879 
1538.927428  	86.977607 
1540.364335  	86.793202 
1541.801242  	86.682754 
1543.238149  	86.506451 
1544.675056  	86.407825 
1546.111963  	86.309252 
1547.548870  	86.202643 
1548.985777  	86.110462 
1550.422684  	85.913173 
1551.859591  	85.755835 
1553.296498  	85.670004 
1554.733405  	85.482560 
1556.170312  	85.340668 
1557.607219  	85.238351 
1559.044126  	84.920728 
1560.481033  	84.827178 
1561.917940  	84.720556 
1563.354847  	84.590141 
1564.791754  	84.490548 
1566.228661  	84.242784 
1567.665569  	84.116954 
1569.102476  	83.997136 
1570.539383  	83.687031 
1571.976290  	83.599755 
1573.413197  	83.471638 
1574.850104  	83.281881 
1576.287011  	83.133629 
1577.723918  	82.873830 
1579.160825  	82.678782 
1580.597732  	82.512572 
1582.034639  	82.276676 
1583.471546  	82.100851 
1584.908453  	81.893012 
1586.345360  	81.624118 
1587.782267  	81.456852 
1589.219174  	81.155509 
1590.656081  	80.844105 
1592.092988  	80.583740 
1593.529895  	80.225859 
1594.966802  	79.913484 
1596.403709  	79.592706 
1597.840616  	79.205619 
1599.277523  	78.913282 
1600.714430  	78.485551 
1602.151337  	78.039271 
1603.588244  	77.620915 
1605.025151  	77.123078 
1606.462058  	76.686136 
1607.898965  	76.240802 
1609.335872  	75.717156 
1610.772779  	75.265514 
1612.209686  	74.760154 
1613.646593  	74.249857 
1615.083500  	73.898145 
1616.520407  	73.293467 
1617.957315  	72.758205 
1619.394222  	72.381167 
1620.831129  	71.826500 
1622.268036  	71.466464 
1623.704943  	71.119843 
1625.141850  	70.677505 
1626.578757  	70.439163 
1628.015664  	70.062638 
1629.452571  	69.791537 
1630.889478  	69.680062 
1632.326385  	69.392051 
1633.763292  	69.234868 
1635.200199  	69.221997 
1636.637106  	69.274650 
1638.074013  	69.454827 
1639.510920  	69.411284 
1640.947827  	69.487420 
1642.384734  	69.726921 
1643.821641  	69.796559 
1645.258548  	69.990217 
1646.695455  	70.381047 
1648.132362  	70.715758 
1649.569269  	71.087276 
1651.006176  	71.227743 
1652.443083  	71.348952 
1653.879990  	72.644355 
1655.316897  	72.782083 
1656.753804  	72.947116 
1658.190711  	73.392677 
1659.627618  	73.738227 
1661.064525  	74.151519 
1662.501432  	74.628904 
1663.938339  	75.118234 
1665.375246  	75.597517 
1666.812154  	75.968403 
1668.249061  	76.361648 
1669.685968  	76.960217 
1671.122875  	77.482499 
1672.559782  	77.940916 
1673.996689  	78.365069 
1675.433596  	78.802236 
1676.870503  	79.383508 
1678.307410  	79.795025 
1679.744317  	80.188987 
1681.181224  	80.699545 
1682.618131  	81.063301 
1684.055038  	81.510166 
1685.491945  	82.247638 
1686.928852  	82.538481 
1688.365759  	82.939675 
1689.802666  	83.398898 
1691.239573  	83.809903 
1692.676480  	84.260544 
1694.113387  	84.572823 
1695.550294  	84.900915 
1696.987201  	85.329808 
1698.424108  	85.551428 
1699.861015  	85.869549 
1701.297922  	86.364658 
1702.734829  	86.573049 
1704.171736  	86.868556 
1705.608643  	87.171097 
1707.045550  	87.446713 
1708.482457  	87.787061 
1709.919364  	88.052789 
1711.356271  	88.347764 
1712.793178  	88.652727 
1714.230085  	88.878514 
1715.666992  	89.172789 
1717.103900  	89.470758 
1718.540807  	89.679860 
1719.977714  	90.002342 
1721.414621  	90.245682 
1722.851528  	90.487994 
1724.288435  	90.758845 
1725.725342  	90.985887 
1727.162249  	91.242639 
1728.599156  	91.387350 
1730.036063  	91.488686 
1731.472970  	91.673675 
1732.909877  	91.789777 
1734.346784  	91.859027 
1735.783691  	92.022025 
1737.220598  	92.144797 
1738.657505  	92.311583 
1740.094412  	92.453549 
1741.531319  	92.518636 
1742.968226  	92.654357 
1744.405133  	92.761045 
1745.842040  	92.859834 
1747.278947  	92.999288 
1748.715854  	93.084740 
1750.152761  	93.216470 
1751.589668  	93.332490 
1753.026575  	93.383616 
1754.463482  	93.547484 
1755.900389  	93.628666 
1757.337296  	93.629632 
1758.774203  	93.754608 
1760.211110  	93.849465 
1761.648017  	93.924190 
1763.084924  	93.989980 
1764.521831  	94.032091 
1765.958738  	94.152728 
1767.395646  	94.193530 
1768.832553  	94.177200 
1770.269460  	94.280593 
1771.706367  	94.331462 
1773.143274  	94.335615 
1774.580181  	94.410056 
1776.017088  	94.440309 
1777.453995  	94.501584 
1778.890902  	94.556778 
1780.327809  	94.559138 
1781.764716  	94.606586 
1783.201623  	94.643894 
1784.638530  	94.669337 
1786.075437  	94.714783 
1787.512344  	94.740941 
1788.949251  	94.798592 
1790.386158  	94.856989 
1791.823065  	94.847528 
1793.259972  	94.882741 
1794.696879  	94.883055 
1796.133786  	94.899597 
1797.570693  	94.970638 
1799.007600  	95.021393 
1800.444507  	95.064359 
1801.881414  	95.067155 
1803.318321  	95.047869 
1804.755228  	95.138179 
1806.192135  	95.181427 
1807.629042  	95.176884 
1809.065949  	95.211890 
1810.502856  	95.196193 
1811.939763  	95.223267 
1813.376670  	95.289925 
1814.813577  	95.318726 
1816.250485  	95.379513 
1817.687392  	95.378278 
1819.124299  	95.343629 
1820.561206  	95.350016 
1821.998113  	95.335559 
1823.435020  	95.375817 
1824.871927  	95.422541 
1826.308834  	95.376798 
1827.745741  	95.444337 
1829.182648  	95.490098 
1830.619555  	95.415728 
1832.056462  	95.437645 
1833.493369  	95.465700 
1834.930276  	95.475932 
1836.367183  	95.516633 
1837.804090  	95.510013 
1839.240997  	95.542315 
1840.677904  	95.579206 
1842.114811  	95.586145 
1843.551718  	95.633210 
1844.988625  	95.518500 
1846.425532  	95.473917 
1847.862439  	95.544970 
1849.299346  	95.525172 
1850.736253  	95.573552 
1852.173160  	95.667018 
1853.610067  	95.678521 
1855.046974  	95.687529 
1856.483881  	95.640993 
1857.920788  	95.635447 
1859.357695  	95.694759 
1860.794602  	95.655643 
1862.231509  	95.645638 
1863.668416  	95.668666 
1865.105323  	95.652277 
1866.542231  	95.700549 
1867.979138  	95.685319 
1869.416045  	95.605288 
1870.852952  	95.618252 
1872.289859  	95.598112 
1873.726766  	95.637081 
1875.163673  	95.703519 
1876.600580  	95.645638 
1878.037487  	95.687162 
1879.474394  	95.680037 
1880.911301  	95.659599 
1882.348208  	95.755506 
1883.785115  	95.708618 
1885.222022  	95.680712 
1886.658929  	95.754455 
1888.095836  	95.709169 
1889.532743  	95.688969 
1890.969650  	95.653198 
1892.406557  	95.621658 
1893.843464  	95.697519 
1895.280371  	95.685195 
1896.717278  	95.650786 
1898.154185  	95.694491 
1899.591092  	95.686336 
1901.027999  	95.725398 
1902.464906  	95.744040 
1903.901813  	95.728927 
1905.338720  	95.766526 
1906.775627  	95.700528 
1908.212534  	95.657963 
1909.649441  	95.696563 
1911.086348  	95.642005 
1912.523255  	95.704875 
1913.960162  	95.826077 
1915.397069  	95.726913 
1916.833977  	95.705099 
1918.270884  	95.615509 
1919.707791  	95.563566 
1921.144698  	95.670409 
1922.581605  	95.690408 
1924.018512  	95.719295 
1925.455419  	95.787185 
1926.892326  	95.744730 
1928.329233  	95.706759 
1929.766140  	95.613967 
1931.203047  	95.523275 
1932.639954  	95.639263 
1934.076861  	95.633929 
1935.513768  	95.673558 
1936.950675  	95.755742 
1938.387582  	95.640174 
1939.824489  	95.645430 
1941.261396  	95.669962 
1942.698303  	95.614538 
1944.135210  	95.633317 
1945.572117  	95.491437 
1947.009024  	95.454680 
1948.445931  	95.542462 
1949.882838  	95.588420 
1951.319745  	95.822343 
1952.756652  	95.806160 
1954.193559  	95.590079 
1955.630466  	95.729671 
1957.067373  	95.731889 
1958.504280  	95.738777 
1959.941187  	95.898277 
1961.378094  	95.706145 
1962.815001  	95.629447 
1964.251908  	95.590863 
1965.688816  	95.467424 
1967.125723  	95.764894 
1968.562630  	95.895071 
1969.999537  	95.792982 
1971.436444  	95.657112 
1972.873351  	95.426811 
1974.310258  	95.507609 
1975.747165  	95.583543 
1977.184072  	95.373301 
1978.620979  	95.415332 
1980.057886  	95.423910 
1981.494793  	95.259520 
1982.931700  	95.142609 
1984.368607  	95.094149 
1985.805514  	95.168941 
1987.242421  	95.154350 
1988.679328  	95.078234 
1990.116235  	95.159981 
1991.553142  	95.142226 
1992.990049  	95.017291 
1994.426956  	94.942928 
1995.863863  	94.899686 
1997.300770  	95.138069 
1998.737677  	95.334592 
2000.174584  	95.320820 
2001.611491  	95.494784 
2003.048398  	95.376317 
2004.485305  	95.209127 
2005.922212  	95.247722 
2007.359119  	94.863908 
2008.796026  	94.659633 
2010.232933  	94.891008 
2011.669840  	95.065226 
2013.106747  	95.196650 
2014.543654  	94.875079 
2015.980562  	94.781727 
2017.417469  	95.263286 
2018.854376  	95.007544 
2020.291283  	94.638166 
2021.728190  	94.754984 
2023.165097  	94.654563 
2024.602004  	94.579483 
2026.038911  	94.540915 
2027.475818  	94.607865 
2028.912725  	94.913986 
2030.349632  	94.762366 
2031.786539  	94.680673 
2033.223446  	94.837571 
2034.660353  	94.563896 
2036.097260  	94.496435 
2037.534167  	94.608782 
2038.971074  	94.538574 
2040.407981  	94.598989 
2041.844888  	94.637075 
2043.281795  	94.773638 
2044.718702  	94.885767 
2046.155609  	94.680493 
2047.592516  	94.598954 
2049.029423  	94.396027 
2050.466330  	94.154253 
2051.903237  	94.414371 
2053.340144  	94.591664 
2054.777051  	94.503673 
2056.213958  	94.441053 
2057.650865  	94.238740 
2059.087772  	94.104381 
2060.524679  	94.148681 
2061.961586  	94.156288 
2063.398493  	94.158936 
2064.835401  	94.041638 
2066.272308  	93.953987 
2067.709215  	94.064367 
2069.146122  	94.091195 
2070.583029  	94.088856 
2072.019936  	94.112583 
2073.456843  	94.065182 
2074.893750  	94.058589 
2076.330657  	94.051802 
2077.767564  	94.046047 
2079.204471  	94.022899 
2080.641378  	93.947367 
2082.078285  	93.978561 
2083.515192  	93.948702 
2084.952099  	93.879936 
2086.389006  	94.034143 
2087.825913  	94.088540 
2089.262820  	94.019448 
2090.699727  	94.031431 
2092.136634  	93.962573 
2093.573541  	94.014150 
2095.010448  	94.131320 
2096.447355  	94.034667 
2097.884262  	94.027037 
2099.321169  	94.020881 
2100.758076  	93.937075 
2102.194983  	94.002140 
2103.631890  	93.923369 
2105.068797  	93.786710 
2106.505704  	93.877866 
2107.942611  	93.938443 
2109.379518  	93.955281 
2110.816425  	93.944372 
2112.253332  	93.857686 
2113.690239  	93.879543 
2115.127147  	93.924572 
2116.564054  	93.949453 
2118.000961  	93.991356 
2119.437868  	93.937518 
2120.874775  	93.926404 
2122.311682  	93.976018 
2123.748589  	94.025843 
2125.185496  	94.143013 
2126.622403  	94.137557 
2128.059310  	94.140146 
2129.496217  	94.288581 
2130.933124  	94.263814 
2132.370031  	94.250363 
2133.806938  	94.331293 
2135.243845  	94.199631 
2136.680752  	94.069242 
2138.117659  	94.020601 
2139.554566  	94.065076 
2140.991473  	94.241571 
2142.428380  	94.228054 
2143.865287  	94.302340 
2145.302194  	94.479845 
2146.739101  	94.256054 
2148.176008  	94.110193 
2149.612915  	94.289448 
2151.049822  	94.419120 
2152.486729  	94.530474 
2153.923636  	94.607828 
2155.360543  	94.724217 
2156.797450  	94.686596 
2158.234357  	94.214907 
2159.671264  	93.875199 
2161.108171  	93.918097 
2162.545078  	94.148602 
2163.981985  	94.285002 
2165.418893  	94.061720 
2166.855800  	94.112982 
2168.292707  	94.240982 
2169.729614  	93.899200 
2171.166521  	93.855466 
2172.603428  	94.252302 
2174.040335  	94.412786 
2175.477242  	94.282174 
2176.914149  	94.049428 
2178.351056  	94.106418 
2179.787963  	94.316371 
2181.224870  	94.297801 
2182.661777  	94.325128 
2184.098684  	94.190791 
2185.535591  	93.872481 
2186.972498  	93.937256 
2188.409405  	94.106350 
2189.846312  	94.100261 
2191.283219  	94.145876 
2192.720126  	94.206192 
2194.157033  	94.292011 
2195.593940  	94.308718 
2197.030847  	94.215292 
2198.467754  	94.203243 
2199.904661  	94.294794 
2201.341568  	94.502470 
2202.778475  	94.546816 
2204.215382  	94.339080 
2205.652289  	94.350301 
2207.089196  	94.371209 
2208.526103  	94.285733 
2209.963010  	94.449299 
2211.399917  	94.462031 
2212.836824  	94.319278 
2214.273732  	94.475425 
2215.710639  	94.631218 
2217.147546  	94.676576 
2218.584453  	94.669390 
2220.021360  	94.536046 
2221.458267  	94.546906 
2222.895174  	94.666109 
2224.332081  	94.718149 
2225.768988  	94.779262 
2227.205895  	94.721382 
2228.642802  	94.586299 
2230.079709  	94.590759 
2231.516616  	94.724471 
2232.953523  	94.830273 
2234.390430  	94.776255 
2235.827337  	94.708770 
2237.264244  	94.723308 
2238.701151  	94.743965 
2240.138058  	94.798633 
2241.574965  	94.747236 
2243.011872  	94.667294 
2244.448779  	94.811344 
2245.885686  	94.914195 
2247.322593  	94.909351 
2248.759500  	94.974509 
2250.196407  	94.964693 
2251.633314  	94.947848 
2253.070221  	94.936911 
2254.507128  	94.835292 
2255.944035  	94.825737 
2257.380942  	94.820651 
2258.817849  	94.807547 
2260.254756  	94.987979 
2261.691663  	95.102551 
2263.128570  	95.066703 
2264.565478  	95.099545 
2266.002385  	95.113310 
2267.439292  	95.064471 
2268.876199  	95.041427 
2270.313106  	95.063450 
2271.750013  	95.125181 
2273.186920  	95.172339 
2274.623827  	95.180949 
2276.060734  	95.134936 
2277.497641  	95.107585 
2278.934548  	95.168008 
2280.371455  	95.161749 
2281.808362  	95.122482 
2283.245269  	95.167732 
2284.682176  	95.169182 
2286.119083  	95.178819 
2287.555990  	95.252680 
2288.992897  	95.261020 
2290.429804  	95.276889 
2291.866711  	95.330233 
2293.303618  	95.325797 
2294.740525  	95.316965 
2296.177432  	95.337283 
2297.614339  	95.382137 
2299.051246  	95.388781 
2300.488153  	95.466913 
2301.925060  	95.450499 
2303.361967  	95.449868 
2304.798874  	95.482095 
2306.235781  	95.470898 
2307.672688  	95.401248 
2309.109595  	95.442718 
2310.546502  	95.523158 
2311.983409  	95.472764 
2313.420317  	95.449751 
2314.857224  	95.489744 
2316.294131  	95.502002 
2317.731038  	95.512915 
2319.167945  	95.471635 
2320.604852  	95.439215 
2322.041759  	95.424992 
2323.478666  	95.328718 
2324.915573  	95.386143 
2326.352480  	95.619905 
2327.789387  	95.768129 
2329.226294  	95.839891 
2330.663201  	95.840005 
2332.100108  	95.758591 
2333.537015  	95.753907 
2334.973922  	95.805492 
2336.410829  	95.830771 
2337.847736  	95.833261 
2339.284643  	95.849455 
2340.721550  	95.891189 
2342.158457  	95.841408 
2343.595364  	95.764335 
2345.032271  	95.782156 
2346.469178  	95.800821 
2347.906085  	95.833850 
2349.342992  	95.886540 
2350.779899  	95.914244 
2352.216806  	95.946881 
2353.653713  	95.959824 
2355.090620  	95.994456 
2356.527527  	96.108873 
2357.964434  	96.120468 
2359.401341  	96.081893 
2360.838248  	96.047283 
2362.275155  	95.966364 
2363.712063  	96.020836 
2365.148970  	96.074532 
2366.585877  	96.043892 
2368.022784  	96.112720 
2369.459691  	96.116273 
2370.896598  	96.082647 
2372.333505  	96.150183 
2373.770412  	96.151481 
2375.207319  	96.102316 
2376.644226  	96.090763 
2378.081133  	96.104167 
2379.518040  	96.151941 
2380.954947  	96.184148 
2382.391854  	96.206505 
2383.828761  	96.223256 
2385.265668  	96.201767 
2386.702575  	96.229116 
2388.139482  	96.281963 
2389.576389  	96.268152 
2391.013296  	96.268671 
2392.450203  	96.294057 
2393.887110  	96.297622 
2395.324017  	96.314073 
2396.760924  	96.331585 
2398.197831  	96.333421 
2399.634738  	96.300756 
2401.071645  	96.270013 
2402.508552  	96.319604 
2403.945459  	96.350706 
2405.382366  	96.325033 
2406.819273  	96.339877 
2408.256180  	96.338830 
2409.693087  	96.301080 
2411.129994  	96.289302 
2412.566901  	96.291935 
2414.003809  	96.312003 
2415.440716  	96.329218 
2416.877623  	96.331978 
2418.314530  	96.347479 
2419.751437  	96.354868 
2421.188344  	96.363118 
2422.625251  	96.363082 
2424.062158  	96.352214 
2425.499065  	96.393372 
2426.935972  	96.434741 
2428.372879  	96.437479 
2429.809786  	96.443602 
2431.246693  	96.435660 
2432.683600  	96.450495 
2434.120507  	96.467814 
2435.557414  	96.424992 
2436.994321  	96.415460 
2438.431228  	96.449187 
2439.868135  	96.479029 
2441.305042  	96.533727 
2442.741949  	96.554726 
2444.178856  	96.529761 
2445.615763  	96.515828 
2447.052670  	96.528244 
2448.489577  	96.555722 
2449.926484  	96.516276 
2451.363391  	96.458833 
2452.800298  	96.480150 
2454.237205  	96.479999 
2455.674112  	96.475608 
2457.111019  	96.531116 
2458.547926  	96.546817 
2459.984833  	96.541587 
2461.421740  	96.555217 
2462.858648  	96.554666 
2464.295555  	96.557105 
2465.732462  	96.543567 
2467.169369  	96.545440 
2468.606276  	96.598869 
2470.043183  	96.643224 
2471.480090  	96.664536 
2472.916997  	96.653752 
2474.353904  	96.652735 
2475.790811  	96.685794 
2477.227718  	96.643026 
2478.664625  	96.610929 
2480.101532  	96.667695 
2481.538439  	96.667268 
2482.975346  	96.672209 
2484.412253  	96.747009 
2485.849160  	96.789005 
2487.286067  	96.817205 
2488.722974  	96.797279 
2490.159881  	96.724828 
2491.596788  	96.714691 
2493.033695  	96.730551 
2494.470602  	96.724471 
2495.907509  	96.725189 
2497.344416  	96.763555 
2498.781323  	96.816843 
2500.218230  	96.766784 
2501.655137  	96.711095 
2503.092044  	96.757734 
2504.528951  	96.740187 
2505.965858  	96.711275 
2507.402765  	96.774449 
2508.839672  	96.792029 
2510.276579  	96.792668 
2511.713486  	96.825972 
2513.150394  	96.845121 
2514.587301  	96.870599 
2516.024208  	96.853826 
2517.461115  	96.816298 
2518.898022  	96.810373 
2520.334929  	96.787199 
2521.771836  	96.794948 
2523.208743  	96.811042 
2524.645650  	96.774659 
2526.082557  	96.773778 
2527.519464  	96.789630 
2528.956371  	96.785792 
2530.393278  	96.791763 
2531.830185  	96.785731 
2533.267092  	96.816425 
2534.703999  	96.856007 
2536.140906  	96.848100 
2537.577813  	96.874709 
2539.014720  	96.893272 
2540.451627  	96.876328 
2541.888534  	96.891730 
2543.325441  	96.880428 
2544.762348  	96.865953 
2546.199255  	96.878623 
2547.636162  	96.845770 
2549.073069  	96.840810 
2550.509976  	96.898349 
2551.946883  	96.936216 
2553.383790  	96.932950 
2554.820697  	96.886767 
2556.257604  	96.872541 
2557.694511  	96.923123 
2559.131418  	96.955082 
2560.568325  	96.983464 
2562.005232  	97.001977 
2563.442140  	96.953892 
2564.879047  	96.915002 
2566.315954  	96.947120 
2567.752861  	96.992676 
2569.189768  	96.981704 
2570.626675  	96.944142 
2572.063582  	96.951869 
2573.500489  	96.968665 
2574.937396  	96.969173 
2576.374303  	96.970176 
2577.811210  	96.951756 
2579.248117  	96.957373 
2580.685024  	96.983372 
2582.121931  	96.963864 
2583.558838  	96.941945 
2584.995745  	96.944481 
2586.432652  	96.958643 
2587.869559  	96.986990 
2589.306466  	96.995527 
2590.743373  	96.994297 
2592.180280  	96.984647 
2593.617187  	96.947921 
2595.054094  	96.937756 
2596.491001  	96.957500 
2597.927908  	96.974132 
2599.364815  	96.969900 
2600.801722  	96.923006 
2602.238629  	96.892779 
2603.675536  	96.901216 
2605.112443  	96.911362 
2606.549350  	96.923668 
2607.986257  	96.900795 
2609.423164  	96.891749 
2610.860071  	96.948487 
2612.296979  	96.956639 
2613.733886  	96.938180 
2615.170793  	96.957624 
2616.607700  	96.935057 
2618.044607  	96.913043 
2619.481514  	96.920324 
2620.918421  	96.898667 
2622.355328  	96.904529 
2623.792235  	96.935665 
2625.229142  	96.942361 
2626.666049  	96.946279 
2628.102956  	96.933216 
2629.539863  	96.924674 
2630.976770  	96.947894 
2632.413677  	96.952508 
2633.850584  	96.930134 
2635.287491  	96.908835 
2636.724398  	96.908238 
2638.161305  	96.918762 
2639.598212  	96.909205 
2641.035119  	96.909407 
2642.472026  	96.926783 
2643.908933  	96.923323 
2645.345840  	96.904484 
2646.782747  	96.875988 
2648.219654  	96.869164 
2649.656561  	96.902283 
2651.093468  	96.914932 
2652.530375  	96.902176 
2653.967282  	96.890948 
2655.404189  	96.875883 
2656.841096  	96.875785 
2658.278003  	96.881611 
2659.714910  	96.890398 
2661.151817  	96.914938 
2662.588725  	96.912708 
2664.025632  	96.894808 
2665.462539  	96.902711 
2666.899446  	96.913741 
2668.336353  	96.915409 
2669.773260  	96.901168 
2671.210167  	96.886400 
2672.647074  	96.899881 
2674.083981  	96.906441 
2675.520888  	96.904877 
2676.957795  	96.909042 
2678.394702  	96.887271 
2679.831609  	96.875029 
2681.268516  	96.893767 
2682.705423  	96.899471 
2684.142330  	96.885905 
2685.579237  	96.863240 
2687.016144  	96.865325 
2688.453051  	96.886605 
2689.889958  	96.857786 
2691.326865  	96.820307 
2692.763772  	96.829316 
2694.200679  	96.839842 
2695.637586  	96.839859 
2697.074493  	96.824077 
2698.511400  	96.795002 
2699.948307  	96.790481 
2701.385214  	96.786648 
2702.822121  	96.780415 
2704.259028  	96.804648 
2705.695935  	96.816541 
2707.132842  	96.796593 
2708.569749  	96.783259 
2710.006656  	96.781888 
2711.443564  	96.778652 
2712.880471  	96.770919 
2714.317378  	96.763022 
2715.754285  	96.751650 
2717.191192  	96.737689 
2718.628099  	96.728652 
2720.065006  	96.715988 
2721.501913  	96.704110 
2722.938820  	96.685648 
2724.375727  	96.649517 
2725.812634  	96.647869 
2727.249541  	96.675199 
2728.686448  	96.661518 
2730.123355  	96.635330 
2731.560262  	96.630033 
2732.997169  	96.613321 
2734.434076  	96.593393 
2735.870983  	96.596886 
2737.307890  	96.609147 
2738.744797  	96.597425 
2740.181704  	96.565460 
2741.618611  	96.542325 
2743.055518  	96.528694 
2744.492425  	96.533159 
2745.929332  	96.550279 
2747.366239  	96.542654 
2748.803146  	96.520964 
2750.240053  	96.493163 
2751.676960  	96.463687 
2753.113867  	96.465230 
2754.550774  	96.460828 
2755.987681  	96.437798 
2757.424588  	96.437758 
2758.861495  	96.425922 
2760.298402  	96.401968 
2761.735310  	96.392366 
2763.172217  	96.363343 
2764.609124  	96.336924 
2766.046031  	96.327763 
2767.482938  	96.310554 
2768.919845  	96.306150 
2770.356752  	96.297339 
2771.793659  	96.267998 
2773.230566  	96.247902 
2774.667473  	96.237458 
2776.104380  	96.246110 
2777.541287  	96.250858 
2778.978194  	96.214113 
2780.415101  	96.178044 
2781.852008  	96.152977 
2783.288915  	96.129714 
2784.725822  	96.125946 
2786.162729  	96.110281 
2787.599636  	96.093584 
2789.036543  	96.099780 
2790.473450  	96.080660 
2791.910357  	96.042405 
2793.347264  	96.016545 
2794.784171  	95.997108 
2796.221078  	95.985854 
2797.657985  	95.965026 
2799.094892  	95.933785 
2800.531799  	95.907022 
2801.968706  	95.880470 
2803.405613  	95.870806 
2804.842520  	95.860833 
2806.279427  	95.833964 
2807.716334  	95.823397 
2809.153241  	95.805402 
2810.590148  	95.768895 
2812.027056  	95.749628 
2813.463963  	95.726221 
2814.900870  	95.697578 
2816.337777  	95.681589 
2817.774684  	95.662026 
2819.211591  	95.651167 
2820.648498  	95.640297 
2822.085405  	95.609439 
2823.522312  	95.577772 
2824.959219  	95.534973 
2826.396126  	95.490646 
2827.833033  	95.478913 
2829.269940  	95.458838 
2830.706847  	95.403756 
2832.143754  	95.361910 
2833.580661  	95.343164 
2835.017568  	95.308689 
2836.454475  	95.274475 
2837.891382  	95.274420 
2839.328289  	95.261893 
2840.765196  	95.211182 
2842.202103  	95.166204 
2843.639010  	95.123362 
2845.075917  	95.076835 
2846.512824  	95.046000 
2847.949731  	95.007813 
2849.386638  	94.967892 
2850.823545  	94.943454 
2852.260452  	94.903096 
2853.697359  	94.850913 
2855.134266  	94.817267 
2856.571173  	94.796529 
2858.008080  	94.762759 
2859.444987  	94.717090 
2860.881895  	94.696615 
2862.318802  	94.683972 
2863.755709  	94.634727 
2865.192616  	94.564637 
2866.629523  	94.499212 
2868.066430  	94.472880 
2869.503337  	94.475543 
2870.940244  	94.433370 
2872.377151  	94.378735 
2873.814058  	94.345880 
2875.250965  	94.276273 
2876.687872  	94.213741 
2878.124779  	94.196471 
2879.561686  	94.164043 
2880.998593  	94.126305 
2882.435500  	94.096628 
2883.872407  	94.047231 
2885.309314  	93.982843 
2886.746221  	93.913189 
2888.183128  	93.863963 
2889.620035  	93.824541 
2891.056942  	93.755998 
2892.493849  	93.685954 
2893.930756  	93.615843 
2895.367663  	93.541576 
2896.804570  	93.502578 
2898.241477  	93.465386 
2899.678384  	93.413633 
2901.115291  	93.373659 
2902.552198  	93.319193 
2903.989105  	93.270297 
2905.426012  	93.228772 
2906.862919  	93.144208 
2908.299826  	93.058174 
2909.736733  	92.983958 
2911.173641  	92.894626 
2912.610548  	92.837239 
2914.047455  	92.784888 
2915.484362  	92.681884 
2916.921269  	92.588720 
2918.358176  	92.541267 
2919.795083  	92.488612 
2921.231990  	92.399985 
2922.668897  	92.313695 
2924.105804  	92.248857 
2925.542711  	92.155323 
2926.979618  	92.050319 
2928.416525  	91.984105 
2929.853432  	91.921270 
2931.290339  	91.851621 
2932.727246  	91.786992 
2934.164153  	91.703446 
2935.601060  	91.614491 
2937.037967  	91.545274 
2938.474874  	91.497973 
2939.911781  	91.439651 
2941.348688  	91.337141 
2942.785595  	91.243488 
2944.222502  	91.174867 
2945.659409  	91.089518 
2947.096316  	91.009760 
2948.533223  	90.914596 
2949.970130  	90.792489 
2951.407037  	90.709364 
2952.843944  	90.622226 
2954.280851  	90.506147 
2955.717758  	90.436359 
2957.154665  	90.367630 
2958.591572  	90.247369 
2960.028479  	90.125866 
2961.465387  	90.019672 
2962.902294  	89.928475 
2964.339201  	89.848757 
2965.776108  	89.745683 
2967.213015  	89.618455 
2968.649922  	89.516490 
2970.086829  	89.445917 
2971.523736  	89.337039 
2972.960643  	89.201775 
2974.397550  	89.098491 
2975.834457  	88.972832 
2977.271364  	88.839631 
2978.708271  	88.755446 
2980.145178  	88.630932 
2981.582085  	88.463606 
2983.018992  	88.340084 
2984.455899  	88.234522 
2985.892806  	88.116324 
2987.329713  	87.976049 
2988.766620  	87.830710 
2990.203527  	87.712915 
2991.640434  	87.579344 
2993.077341  	87.436729 
2994.514248  	87.304675 
2995.951155  	87.145572 
2997.388062  	87.001451 
2998.824969  	86.861094 
3000.261876  	86.688836 
3001.698783  	86.553931 
3003.135690  	86.415416 
3004.572597  	86.237073 
3006.009504  	86.085852 
3007.446411  	85.921882 
3008.883318  	85.735449 
3010.320226  	85.572106 
3011.757133  	85.419793 
3013.194040  	85.283158 
3014.630947  	85.121818 
3016.067854  	84.937911 
3017.504761  	84.787839 
3018.941668  	84.612255 
3020.378575  	84.415740 
3021.815482  	84.253022 
3023.252389  	84.090052 
3024.689296  	83.924228 
3026.126203  	83.733015 
3027.563110  	83.536713 
3029.000017  	83.389263 
3030.436924  	83.203380 
3031.873831  	82.989707 
3033.310738  	82.808205 
3034.747645  	82.597900 
3036.184552  	82.411835 
3037.621459  	82.248272 
3039.058366  	82.035697 
3040.495273  	81.842952 
3041.932180  	81.645091 
3043.369087  	81.419083 
3044.805994  	81.223069 
3046.242901  	81.004293 
3047.679808  	80.780973 
3049.116715  	80.572425 
3050.553622  	80.328063 
3051.990529  	80.105577 
3053.427436  	79.898615 
3054.864343  	79.683945 
3056.301250  	79.480904 
3057.738157  	79.234420 
3059.175064  	78.990820 
3060.611972  	78.764680 
3062.048879  	78.509598 
3063.485786  	78.300712 
3064.922693  	78.089293 
3066.359600  	77.836788 
3067.796507  	77.605029 
3069.233414  	77.324467 
3070.670321  	77.053756 
3072.107228  	76.842947 
3073.544135  	76.585695 
3074.981042  	76.331386 
3076.417949  	76.066059 
3077.854856  	75.766063 
3079.291763  	75.543179 
3080.728670  	75.310092 
3082.165577  	75.030774 
3083.602484  	74.782886 
3085.039391  	74.515954 
3086.476298  	74.245411 
3087.913205  	73.951291 
3089.350112  	73.633612 
3090.787019  	73.372911 
3092.223926  	73.087741 
3093.660833  	72.810106 
3095.097740  	72.571443 
3096.534647  	72.256565 
3097.971554  	71.979125 
3099.408461  	71.726348 
3100.845368  	71.394627 
3102.282275  	71.108886 
3103.719182  	70.811900 
3105.156089  	70.508657 
3106.592996  	70.282461 
3108.029903  	69.965515 
3109.466811  	69.623501 
3110.903718  	69.352026 
3112.340625  	69.045660 
3113.777532  	68.757216 
3115.214439  	68.452746 
3116.651346  	68.135362 
3118.088253  	67.886554 
3119.525160  	67.579237 
3120.962067  	67.259122 
3122.398974  	66.970258 
3123.835881  	66.639855 
3125.272788  	66.374779 
3126.709695  	66.097412 
3128.146602  	65.757476 
3129.583509  	65.454301 
3131.020416  	65.113129 
3132.457323  	64.823481 
3133.894230  	64.573471 
3135.331137  	64.220770 
3136.768044  	63.937308 
3138.204951  	63.657625 
3139.641858  	63.307806 
3141.078765  	63.052619 
3142.515672  	62.761983 
3143.952579  	62.450660 
3145.389486  	62.181270 
3146.826393  	61.824211 
3148.263300  	61.528970 
3149.700207  	61.257911 
3151.137114  	60.913100 
3152.574021  	60.650322 
3154.010928  	60.354538 
3155.447835  	60.058388 
3156.884742  	59.846985 
3158.321649  	59.537944 
3159.758557  	59.238738 
3161.195464  	58.956726 
3162.632371  	58.641019 
3164.069278  	58.441071 
3165.506185  	58.181574 
3166.943092  	57.893274 
3168.379999  	57.683483 
3169.816906  	57.330501 
3171.253813  	57.024991 
3172.690720  	56.846489 
3174.127627  	56.608320 
3175.564534  	56.406895 
3177.001441  	56.131675 
3178.438348  	55.833082 
3179.875255  	55.653112 
3181.312162  	55.356941 
3182.749069  	55.083244 
3184.185976  	54.888915 
3185.622883  	54.612502 
3187.059790  	54.437901 
3188.496697  	54.222252 
3189.933604  	53.932522 
3191.370511  	53.789631 
3192.807418  	53.586026 
3194.244325  	53.386658 
3195.681232  	53.240262 
3197.118139  	52.970641 
3198.555046  	52.792619 
3199.991953  	52.601021 
3201.428860  	52.320828 
3202.865767  	52.202386 
3204.302674  	52.053709 
3205.739581  	51.879703 
3207.176488  	51.741040 
3208.613395  	51.501190 
3210.050303  	51.398432 
3211.487210  	51.308774 
3212.924117  	51.089352 
3214.361024  	50.993141 
3215.797931  	50.843276 
3217.234838  	50.672924 
3218.671745  	50.604011 
3220.108652  	50.428245 
3221.545559  	50.321948 
3222.982466  	50.241973 
3224.419373  	50.072257 
3225.856280  	50.028603 
3227.293187  	49.925539 
3228.730094  	49.800837 
3230.167001  	49.790820 
3231.603908  	49.659928 
3233.040815  	49.561734 
3234.477722  	49.485882 
3235.914629  	49.352773 
3237.351536  	49.372934 
3238.788443  	49.306793 
3240.225350  	49.210252 
3241.662257  	49.233052 
3243.099164  	49.077773 
3244.536071  	48.997592 
3245.972978  	49.021768 
3247.409885  	48.899150 
3248.846792  	48.914251 
3250.283699  	48.902315 
3251.720606  	48.786991 
3253.157513  	48.811517 
3254.594420  	48.738378 
3256.031327  	48.687105 
3257.468234  	48.727969 
3258.905142  	48.636097 
3260.342049  	48.661164 
3261.778956  	48.695204 
3263.215863  	48.612056 
3264.652770  	48.636904 
3266.089677  	48.596726 
3267.526584  	48.556272 
3268.963491  	48.579208 
3270.400398  	48.490829 
3271.837305  	48.498221 
3273.274212  	48.502430 
3274.711119  	48.434982 
3276.148026  	48.505517 
3277.584933  	48.484801 
3279.021840  	48.447833 
3280.458747  	48.499713 
3281.895654  	48.452353 
3283.332561  	48.489370 
3284.769468  	48.495987 
3286.206375  	48.395232 
3287.643282  	48.431389 
3289.080189  	48.386370 
3290.517096  	48.338905 
3291.954003  	48.424826 
3293.390910  	48.391064 
3294.827817  	48.391919 
3296.264724  	48.388960 
3297.701631  	48.316896 
3299.138538  	48.384760 
3300.575445  	48.346047 
3302.012352  	48.270488 
3303.449259  	48.324154 
3304.886166  	48.281958 
3306.323073  	48.310745 
3307.759980  	48.322851 
3309.196888  	48.221642 
3310.633795  	48.316650 
3312.070702  	48.351889 
3313.507609  	48.308006 
3314.944516  	48.356834 
3316.381423  	48.256300 
3317.818330  	48.239960 
3319.255237  	48.305125 
3320.692144  	48.233401 
3322.129051  	48.282343 
3323.565958  	48.275169 
3325.002865  	48.218085 
3326.439772  	48.325158 
3327.876679  	48.299284 
3329.313586  	48.309028 
3330.750493  	48.395174 
3332.187400  	48.307343 
3333.624307  	48.323407 
3335.061214  	48.346234 
3336.498121  	48.318636 
3337.935028  	48.416071 
3339.371935  	48.354077 
3340.808842  	48.325959 
3342.245749  	48.432951 
3343.682656  	48.382575 
3345.119563  	48.415888 
3346.556470  	48.462545 
3347.993377  	48.434042 
3349.430284  	48.547674 
3350.867191  	48.566875 
3352.304098  	48.587485 
3353.741005  	48.674189 
3355.177912  	48.612830 
3356.614819  	48.698271 
3358.051726  	48.782232 
3359.488634  	48.715463 
3360.925541  	48.821906 
3362.362448  	48.868201 
3363.799355  	48.901438 
3365.236262  	49.061565 
3366.673169  	49.052584 
3368.110076  	49.112401 
3369.546983  	49.241868 
3370.983890  	49.273332 
3372.420797  	49.426899 
3373.857704  	49.485126 
3375.294611  	49.499287 
3376.731518  	49.653511 
3378.168425  	49.696028 
3379.605332  	49.813795 
3381.042239  	49.948415 
3382.479146  	49.926112 
3383.916053  	50.085593 
3385.352960  	50.241692 
3386.789867  	50.308039 
3388.226774  	50.499620 
3389.663681  	50.603225 
3391.100588  	50.706458 
3392.537495  	50.849420 
3393.974402  	50.934302 
3395.411309  	51.106310 
3396.848216  	51.172007 
3398.285123  	51.254508 
3399.722030  	51.502943 
3401.158937  	51.566986 
3402.595844  	51.705071 
3404.032751  	51.993474 
3405.469658  	52.113073 
3406.906565  	52.263592 
3408.343473  	52.395694 
3409.780380  	52.526672 
3411.217287  	52.796968 
3412.654194  	52.928930 
3414.091101  	53.096729 
3415.528008  	53.339448 
3416.964915  	53.418123 
3418.401822  	53.609958 
3419.838729  	53.814376 
3421.275636  	53.940244 
3422.712543  	54.220531 
3424.149450  	54.429687 
3425.586357  	54.636584 
3427.023264  	54.890451 
3428.460171  	55.002961 
3429.897078  	55.207528 
3431.333985  	55.422881 
3432.770892  	55.578954 
3434.207799  	55.832963 
3435.644706  	55.955882 
3437.081613  	56.116146 
3438.518520  	56.415474 
3439.955427  	56.593461 
3441.392334  	56.852609 
3442.829241  	57.110889 
3444.266148  	57.259694 
3445.703055  	57.510587 
3447.139962  	57.675312 
3448.576869  	57.874230 
3450.013776  	58.167191 
3451.450683  	58.296968 
3452.887590  	58.531615 
3454.324497  	58.786261 
3455.761404  	58.927656 
3457.198311  	59.230545 
3458.635219  	59.424729 
3460.072126  	59.542929 
3461.509033  	59.838070 
3462.945940  	60.040087 
3464.382847  	60.253698 
3465.819754  	60.498716 
3467.256661  	60.663752 
3468.693568  	60.967781 
3470.130475  	61.207545 
3471.567382  	61.374306 
3473.004289  	61.657345 
3474.441196  	61.845196 
3475.878103  	62.067064 
3477.315010  	62.320853 
3478.751917  	62.432849 
3480.188824  	62.643541 
3481.625731  	62.877719 
3483.062638  	63.091963 
3484.499545  	63.387712 
3485.936452  	63.576124 
3487.373359  	63.821973 
3488.810266  	64.103989 
3490.247173  	64.233874 
3491.684080  	64.479931 
3493.120987  	64.734164 
3494.557894  	64.913342 
3495.994801  	65.176026 
3497.431708  	65.337331 
3498.868615  	65.528597 
3500.305522  	65.825114 
3501.742429  	66.026590 
3503.179336  	66.288782 
3504.616243  	66.536988 
3506.053150  	66.713632 
3507.490058  	66.983243 
3508.926965  	67.177607 
3510.363872  	67.372869 
3511.800779  	67.635491 
3513.237686  	67.810948 
3514.674593  	68.059354 
3516.111500  	68.297427 
3517.548407  	68.479522 
3518.985314  	68.765390 
3520.422221  	68.966590 
3521.859128  	69.149060 
3523.296035  	69.413056 
3524.732942  	69.607398 
3526.169849  	69.888919 
3527.606756  	70.152620 
3529.043663  	70.307106 
3530.480570  	70.585891 
3531.917477  	70.825587 
3533.354384  	71.030640 
3534.791291  	71.289844 
3536.228198  	71.432338 
3537.665105  	71.625545 
3539.102012  	71.939201 
3540.538919  	72.197770 
3541.975826  	72.408485 
3543.412733  	72.549132 
3544.849640  	72.707352 
3546.286547  	72.967785 
3547.723454  	73.222849 
3549.160361  	73.486817 
3550.597268  	73.733204 
3552.034175  	73.953900 
3553.471082  	74.219327 
3554.907989  	74.442936 
3556.344896  	74.685957 
3557.781804  	74.945949 
3559.218711  	75.093484 
3560.655618  	75.260860 
3562.092525  	75.459750 
3563.529432  	75.638476 
3564.966339  	75.886916 
3566.403246  	76.125453 
3567.840153  	76.381325 
3569.277060  	76.662178 
3570.713967  	76.821228 
3572.150874  	77.019082 
3573.587781  	77.248408 
3575.024688  	77.411062 
3576.461595  	77.650969 
3577.898502  	77.862562 
3579.335409  	78.063726 
3580.772316  	78.323578 
3582.209223  	78.468618 
3583.646130  	78.658868 
3585.083037  	78.907551 
3586.519944  	79.073857 
3587.956851  	79.339950 
3589.393758  	79.542887 
3590.830665  	79.684489 
3592.267572  	79.955385 
3593.704479  	80.160665 
3595.141386  	80.327407 
3596.578293  	80.504852 
3598.015200  	80.610903 
3599.452107  	80.825900 
3600.889014  	81.030693 
3602.325921  	81.182637 
3603.762828  	81.469948 
3605.199735  	81.717140 
3606.636642  	81.920191 
3608.073550  	82.125157 
3609.510457  	82.245112 
3610.947364  	82.495960 
3612.384271  	82.741673 
3613.821178  	82.819523 
3615.258085  	82.946273 
3616.694992  	83.140090 
3618.131899  	83.399053 
3619.568806  	83.641135 
3621.005713  	83.683284 
3622.442620  	83.879823 
3623.879527  	84.164561 
3625.316434  	84.370270 
3626.753341  	84.609784 
3628.190248  	84.855494 
3629.627155  	85.047316 
3631.064062  	85.301562 
3632.500969  	85.577256 
3633.937876  	85.868035 
3635.374783  	85.996877 
3636.811690  	86.129342 
3638.248597  	86.398389 
3639.685504  	86.578549 
3641.122411  	86.793521 
3642.559318  	87.087996 
3643.996225  	87.267251 
3645.433132  	87.526646 
3646.870039  	87.851810 
3648.306946  	88.093767 
3649.743853  	88.450150 
3651.180760  	88.581153 
3652.617667  	88.670874 
3654.054574  	89.029855 
3655.491481  	89.375687 
3656.928389  	89.627054 
3658.365296  	89.801399 
3659.802203  	90.019722 
3661.239110  	90.363374 
3662.676017  	90.660988 
3664.112924  	90.888060 
3665.549831  	91.084672 
3666.986738  	91.275227 
3668.423645  	91.446094 
3669.860552  	91.548507 
3671.297459  	91.616776 
3672.734366  	91.841349 
3674.171273  	92.239205 
3675.608180  	92.562141 
3677.045087  	92.461877 
3678.481994  	92.583637 
3679.918901  	92.844419 
3681.355808  	93.048193 
3682.792715  	93.256819 
3684.229622  	93.440162 
3685.666529  	93.573989 
3687.103436  	93.833823 
3688.540343  	94.110576 
3689.977250  	94.103074 
3691.414157  	94.201302 
3692.851064  	94.277342 
3694.287971  	94.334985 
3695.724878  	94.535592 
3697.161785  	94.612771 
3698.598692  	94.698547 
3700.035599  	94.916786 
3701.472506  	94.960374 
3702.909413  	94.883180 
3704.346320  	94.989152 
3705.783227  	95.139152 
3707.220135  	95.310041 
3708.657042  	95.426944 
3710.093949  	95.434622 
3711.530856  	95.421782 
3712.967763  	95.329463 
3714.404670  	95.309179 
3715.841577  	95.459835 
3717.278484  	95.623492 
3718.715391  	95.687683 
3720.152298  	95.672223 
3721.589205  	95.750643 
3723.026112  	95.764689 
3724.463019  	95.706239 
3725.899926  	95.780381 
3727.336833  	95.761491 
3728.773740  	95.722842 
3730.210647  	95.867203 
3731.647554  	95.979462 
3733.084461  	95.921194 
3734.521368  	95.977568 
3735.958275  	95.830893 
3737.395182  	95.715758 
3738.832089  	95.870073 
3740.268996  	95.985812 
3741.705903  	96.085056 
3743.142810  	96.311326 
3744.579717  	96.246861 
3746.016624  	95.987250 
3747.453531  	96.177956 
3748.890438  	96.391763 
3750.327345  	96.368712 
3751.764252  	96.341977 
3753.201159  	96.370921 
3754.638066  	96.390149 
3756.074973  	96.538313 
3757.511881  	96.675097 
3758.948788  	96.673984 
3760.385695  	96.684725 
3761.822602  	96.716190 
3763.259509  	96.797240 
3764.696416  	96.876702 
3766.133323  	96.783103 
3767.570230  	96.727168 
3769.007137  	96.823358 
3770.444044  	96.787393 
3771.880951  	96.710525 
3773.317858  	96.758102 
3774.754765  	96.779776 
3776.191672  	96.789623 
3777.628579  	96.850184 
3779.065486  	96.915197 
3780.502393  	96.845159 
3781.939300  	96.784922 
3783.376207  	96.879833 
3784.813114  	96.917742 
3786.250021  	96.842849 
3787.686928  	96.846104 
3789.123835  	96.881730 
3790.560742  	96.926772 
3791.997649  	96.973312 
3793.434556  	96.929793 
3794.871463  	96.986732 
3796.308370  	97.040791 
3797.745277  	96.855088 
3799.182184  	96.949736 
3800.619091  	97.218162 
3802.055998  	96.983249 
3803.492905  	96.660238 
3804.929812  	96.937373 
3806.366720  	97.116634 
3807.803627  	96.846128 
3809.240534  	96.764505 
3810.677441  	96.988483 
3812.114348  	97.049068 
3813.551255  	97.081899 
3814.988162  	97.281461 
3816.425069  	97.170918 
3817.861976  	96.845749 
3819.298883  	97.058756 
3820.735790  	97.281470 
3822.172697  	96.941758 
3823.609604  	96.815976 
3825.046511  	97.081030 
3826.483418  	97.209900 
3827.920325  	97.036504 
3829.357232  	97.035333 
3830.794139  	97.163994 
3832.231046  	97.098011 
3833.667953  	97.013914 
3835.104860  	97.078404 
3836.541767  	97.160805 
3837.978674  	97.140234 
3839.415581  	96.927557 
3840.852488  	96.894942 
3842.289395  	97.076100 
3843.726302  	97.103123 
3845.163209  	96.990607 
3846.600116  	96.988748 
3848.037023  	97.090729 
3849.473930  	97.146422 
3850.910837  	97.181702 
3852.347744  	97.363129 
3853.784651  	97.251363 
3855.221558  	96.742061 
3856.658466  	96.856451 
3858.095373  	96.957651 
3859.532280  	97.060403 
3860.969187  	97.203701 
3862.406094  	97.137950 
3863.843001  	97.100211 
3865.279908  	97.102465 
3866.716815  	96.937589 
3868.153722  	97.158969 
3869.590629  	97.353485 
3871.027536  	96.859589 
3872.464443  	96.949022 
3873.901350  	97.215922 
3875.338257  	96.969107 
3876.775164  	96.933079 
3878.212071  	97.200318 
3879.648978  	97.278398 
3881.085885  	97.133426 
3882.522792  	97.013960 
3883.959699  	97.152887 
3885.396606  	97.222010 
3886.833513  	97.014355 
3888.270420  	97.044984 
3889.707327  	97.210571 
3891.144234  	97.209832 
3892.581141  	97.040098 
3894.018048  	96.984746 
3895.454955  	97.050420 
3896.891862  	97.124987 
3898.328769  	97.162322 
3899.765676  	97.165541 
3901.202583  	97.115096 
3902.639490  	97.111107 
3904.076397  	97.124155 
3905.513305  	97.018237 
3906.950212  	97.011105 
3908.387119  	97.079931 
3909.824026  	97.107645 
3911.260933  	97.132359 
3912.697840  	97.104289 
3914.134747  	97.088651 
3915.571654  	97.179664 
3917.008561  	97.145538 
3918.445468  	97.046112 
3919.882375  	97.094557 
3921.319282  	97.110350 
3922.756189  	97.141361 
3924.193096  	97.160287 
3925.630003  	97.040012 
3927.066910  	97.025186 
3928.503817  	97.109977 
3929.940724  	97.145855 
3931.377631  	97.160281 
3932.814538  	97.103538 
3934.251445  	97.028130 
3935.688352  	97.062235 
3937.125259  	97.129987 
3938.562166  	97.143409 
3939.999073  	97.124204 
3941.435980  	97.091909 
3942.872887  	97.051419 
3944.309794  	97.023280 
3945.746701  	97.064963 
3947.183608  	97.128259 
3948.620515  	97.135433 
3950.057422  	97.128258 
3951.494329  	97.141199 
3952.931236  	97.139395 
3954.368143  	97.123278 
3955.805051  	97.110107 
3957.241958  	97.124783 
3958.678865  	97.125733 
3960.115772  	97.099036 
3961.552679  	97.133487 
3962.989586  	97.133795 
3964.426493  	97.140027 
3965.863400  	97.197450 
3967.300307  	97.181189 
3968.737214  	97.145978 
3970.174121  	97.142009 
3971.611028  	97.125019 
3973.047935  	97.151192 
3974.484842  	97.156571 
3975.921749  	97.124260 
3977.358656  	97.153311 
3978.795563  	97.169042 
3980.232470  	97.161312 
3981.669377  	97.164523 
3983.106284  	97.126395 
3984.543191  	97.116913 
3985.980098  	97.145185 
3987.417005  	97.138663 
3988.853912  	97.130010 
3990.290819  	97.113347 
3991.727726  	97.096872 
3993.164633  	97.117896 
3994.601540  	97.134221 
3996.038447  	97.155673 
3997.475354  	97.195035 
3998.912261  	97.201815 
4000.349168  	97.176944 