##TITLE=No Description
##DATA TYPE=INFRARED SPECTRUM
##XUNITS=1/CM
##YUNITS=%T
399.460154  	49.220366 
400.897061  	47.862621 
402.333968  	49.065455 
403.770875  	49.181365 
405.207782  	47.419041 
406.644689  	47.280926 
408.081596  	47.089424 
409.518503  	47.804475 
410.955410  	48.107003 
412.392317  	47.081128 
413.829224  	47.998666 
415.266131  	48.194996 
416.703038  	47.411572 
418.139945  	48.290607 
419.576852  	47.509884 
421.013759  	47.299673 
422.450666  	47.598687 
423.887574  	46.894057 
425.324481  	47.494586 
426.761388  	47.687279 
428.198295  	47.434348 
429.635202  	48.022511 
431.072109  	47.778638 
432.509016  	47.950430 
433.945923  	48.264074 
435.382830  	47.474897 
436.819737  	47.700551 
438.256644  	47.341162 
439.693551  	46.780943 
441.130458  	48.123154 
442.567365  	48.348653 
444.004272  	47.676818 
445.441179  	47.920972 
446.878086  	47.824165 
448.314993  	48.230277 
449.751900  	48.249648 
451.188807  	47.787402 
452.625714  	48.188561 
454.062621  	48.015971 
455.499528  	48.071656 
456.936435  	48.717317 
458.373342  	48.454542 
459.810249  	48.771828 
461.247156  	48.835240 
462.684063  	48.345509 
464.120970  	48.619377 
465.557877  	48.419232 
466.994784  	47.932781 
468.431691  	47.590018 
469.868598  	47.035002 
471.305505  	47.504155 
472.742413  	47.817548 
474.179320  	47.503067 
475.616227  	48.141026 
477.053134  	48.461579 
478.490041  	48.412459 
479.926948  	48.495543 
481.363855  	48.250993 
482.800762  	48.685617 
484.237669  	48.743753 
485.674576  	47.801428 
487.111483  	47.855827 
488.548390  	48.183832 
489.985297  	48.266304 
491.422204  	48.551173 
492.859111  	48.452637 
494.296018  	48.385893 
495.732925  	48.384301 
497.169832  	48.319180 
498.606739  	48.604310 
500.043646  	48.547052 
501.480553  	48.475827 
502.917460  	48.679895 
504.354367  	48.341249 
505.791274  	48.402888 
507.228181  	48.757452 
508.665088  	48.498615 
510.101995  	48.514104 
511.538902  	48.767422 
512.975809  	48.865402 
514.412716  	48.894162 
515.849623  	48.713209 
517.286530  	48.896757 
518.723437  	49.204031 
520.160344  	49.082526 
521.597251  	49.053633 
523.034159  	48.853990 
524.471066  	48.665327 
525.907973  	48.987477 
527.344880  	49.125994 
528.781787  	49.090677 
530.218694  	49.047386 
531.655601  	48.989475 
533.092508  	49.284279 
534.529415  	49.372324 
535.966322  	49.257237 
537.403229  	49.423216 
538.840136  	49.294410 
540.277043  	49.150853 
541.713950  	49.377391 
543.150857  	49.478828 
544.587764  	49.588042 
546.024671  	49.727740 
547.461578  	49.772820 
548.898485  	49.878237 
550.335392  	49.884312 
551.772299  	49.957212 
553.209206  	50.072379 
554.646113  	50.020293 
556.083020  	50.055963 
557.519927  	50.051110 
558.956834  	50.065146 
560.393741  	50.271225 
561.830648  	50.279198 
563.267555  	50.342310 
564.704462  	50.596190 
566.141369  	50.640818 
567.578276  	50.677289 
569.015183  	50.665585 
570.452090  	50.587429 
571.888997  	50.747758 
573.325905  	50.833631 
574.762812  	50.831494 
576.199719  	50.937550 
577.636626  	50.959643 
579.073533  	51.072038 
580.510440  	51.260196 
581.947347  	51.284490 
583.384254  	51.280969 
584.821161  	51.305722 
586.258068  	51.429979 
587.694975  	51.554593 
589.131882  	51.587486 
590.568789  	51.767273 
592.005696  	51.841935 
593.442603  	51.754654 
594.879510  	51.905997 
596.316417  	52.023389 
597.753324  	52.087884 
599.190231  	52.282261 
600.627138  	52.286431 
602.064045  	52.268420 
603.500952  	52.402454 
604.937859  	52.482507 
606.374766  	52.584873 
607.811673  	52.700488 
609.248580  	52.801127 
610.685487  	52.913378 
612.122394  	52.934433 
613.559301  	53.054415 
614.996208  	53.241741 
616.433115  	53.299619 
617.870022  	53.419152 
619.306929  	53.505309 
620.743836  	53.534842 
622.180744  	53.713193 
623.617651  	53.827621 
625.054558  	53.884029 
626.491465  	54.003483 
627.928372  	54.077521 
629.365279  	54.229380 
630.802186  	54.376082 
632.239093  	54.407051 
633.676000  	54.504420 
635.112907  	54.590012 
636.549814  	54.662593 
637.986721  	54.822495 
639.423628  	54.914159 
640.860535  	54.993730 
642.297442  	55.138926 
643.734349  	55.294983 
645.171256  	55.442657 
646.608163  	55.517292 
648.045070  	55.584686 
649.481977  	55.718768 
650.918884  	55.815272 
652.355791  	55.939108 
653.792698  	56.093858 
655.229605  	56.190982 
656.666512  	56.313022 
658.103419  	56.437239 
659.540326  	56.572934 
660.977233  	56.760930 
662.414140  	56.881034 
663.851047  	56.985777 
665.287954  	57.127371 
666.724861  	57.241070 
668.161768  	57.360154 
669.598675  	57.450051 
671.035582  	57.585863 
672.472490  	57.712019 
673.909397  	57.758472 
675.346304  	57.893592 
676.783211  	58.110201 
678.220118  	58.241154 
679.657025  	58.371136 
681.093932  	58.510454 
682.530839  	58.596768 
683.967746  	58.718491 
685.404653  	58.890798 
686.841560  	59.071470 
688.278467  	59.230517 
689.715374  	59.366827 
691.152281  	59.498231 
692.589188  	59.615679 
694.026095  	59.730601 
695.463002  	59.895543 
696.899909  	60.078537 
698.336816  	60.258311 
699.773723  	60.410989 
701.210630  	60.544854 
702.647537  	60.693929 
704.084444  	60.840204 
705.521351  	60.974209 
706.958258  	61.122067 
708.395165  	61.269130 
709.832072  	61.434715 
711.268979  	61.578623 
712.705886  	61.711760 
714.142793  	61.906953 
715.579700  	62.078031 
717.016607  	62.228926 
718.453514  	62.388302 
719.890421  	62.510698 
721.327328  	62.656093 
722.764236  	62.814484 
724.201143  	62.941416 
725.638050  	63.087685 
727.074957  	63.318836 
728.511864  	63.525384 
729.948771  	63.675303 
731.385678  	63.794829 
732.822585  	63.969254 
734.259492  	64.160104 
735.696399  	64.286197 
737.133306  	64.433336 
738.570213  	64.609175 
740.007120  	64.815636 
741.444027  	65.048775 
742.880934  	65.186426 
744.317841  	65.327614 
745.754748  	65.536835 
747.191655  	65.677283 
748.628562  	65.831953 
750.065469  	66.024349 
751.502376  	66.171911 
752.939283  	66.356022 
754.376190  	66.551029 
755.813097  	66.729702 
757.250004  	66.919623 
758.686911  	67.070222 
760.123818  	67.243989 
761.560725  	67.415452 
762.997632  	67.528042 
764.434539  	67.718647 
765.871446  	67.931515 
767.308353  	68.079285 
768.745260  	68.271826 
770.182167  	68.502479 
771.619075  	68.714153 
773.055982  	68.866079 
774.492889  	69.000876 
775.929796  	69.232465 
777.366703  	69.439991 
778.803610  	69.589223 
780.240517  	69.796471 
781.677424  	69.957502 
783.114331  	70.089321 
784.551238  	70.267564 
785.988145  	70.420375 
787.425052  	70.625588 
788.861959  	70.865785 
790.298866  	71.046838 
791.735773  	71.234173 
793.172680  	71.392937 
794.609587  	71.541186 
796.046494  	71.735114 
797.483401  	71.896935 
798.920308  	72.087202 
800.357215  	72.315350 
801.794122  	72.505794 
803.231029  	72.713672 
804.667936  	72.895184 
806.104843  	73.065904 
807.541750  	73.301237 
808.978657  	73.495661 
810.415564  	73.667411 
811.852471  	73.859285 
813.289378  	74.011560 
814.726285  	74.180612 
816.163192  	74.359841 
817.600099  	74.543736 
819.037006  	74.767685 
820.473913  	74.958405 
821.910821  	75.167677 
823.347728  	75.403104 
824.784635  	75.565575 
826.221542  	75.736717 
827.658449  	75.905770 
829.095356  	76.046263 
830.532263  	76.269640 
831.969170  	76.495985 
833.406077  	76.667685 
834.842984  	76.844005 
836.279891  	77.004040 
837.716798  	77.182612 
839.153705  	77.392295 
840.590612  	77.632652 
842.027519  	77.890380 
843.464426  	78.041484 
844.901333  	78.162062 
846.338240  	78.356777 
847.775147  	78.548048 
849.212054  	78.785261 
850.648961  	79.027265 
852.085868  	79.171594 
853.522775  	79.320884 
854.959682  	79.485720 
856.396589  	79.672567 
857.833496  	79.896783 
859.270403  	80.059906 
860.707310  	80.247487 
862.144217  	80.478003 
863.581124  	80.640728 
865.018031  	80.813913 
866.454938  	80.974575 
867.891845  	81.107161 
869.328752  	81.311404 
870.765660  	81.504934 
872.202567  	81.676355 
873.639474  	81.841117 
875.076381  	81.940101 
876.513288  	82.093484 
877.950195  	82.305557 
879.387102  	82.490687 
880.824009  	82.691063 
882.260916  	82.854282 
883.697823  	82.998009 
885.134730  	83.171141 
886.571637  	83.308850 
888.008544  	83.465703 
889.445451  	83.643227 
890.882358  	83.785426 
892.319265  	83.929623 
893.756172  	84.059300 
895.193079  	84.208479 
896.629986  	84.361045 
898.066893  	84.467815 
899.503800  	84.640730 
900.940707  	84.797338 
902.377614  	84.870884 
903.814521  	85.022812 
905.251428  	85.168190 
906.688335  	85.265292 
908.125242  	85.416954 
909.562149  	85.528809 
910.999056  	85.627346 
912.435963  	85.757162 
913.872870  	85.851903 
915.309777  	85.987392 
916.746684  	86.138960 
918.183591  	86.256139 
919.620498  	86.382796 
921.057406  	86.471707 
922.494313  	86.586420 
923.931220  	86.751551 
925.368127  	86.858869 
926.805034  	86.965784 
928.241941  	87.079487 
929.678848  	87.158946 
931.115755  	87.252928 
932.552662  	87.337676 
933.989569  	87.434714 
935.426476  	87.531864 
936.863383  	87.593381 
938.300290  	87.710345 
939.737197  	87.808248 
941.174104  	87.856543 
942.611011  	87.988739 
944.047918  	88.097708 
945.484825  	88.142335 
946.921732  	88.232025 
948.358639  	88.314744 
949.795546  	88.376234 
951.232453  	88.426086 
952.669360  	88.487943 
954.106267  	88.626055 
955.543174  	88.740026 
956.980081  	88.801741 
958.416988  	88.874034 
959.853895  	88.918620 
961.290802  	88.977889 
962.727709  	89.048199 
964.164616  	89.090752 
965.601523  	89.170985 
967.038430  	89.251645 
968.475337  	89.319832 
969.912244  	89.391664 
971.349152  	89.418169 
972.786059  	89.485070 
974.222966  	89.572526 
975.659873  	89.596710 
977.096780  	89.667010 
978.533687  	89.750695 
979.970594  	89.780353 
981.407501  	89.828710 
982.844408  	89.870550 
984.281315  	89.911273 
985.718222  	89.970532 
987.155129  	90.014184 
988.592036  	90.067851 
990.028943  	90.098705 
991.465850  	90.118865 
992.902757  	90.169965 
994.339664  	90.185935 
995.776571  	90.210978 
997.213478  	90.254639 
998.650385  	90.240498 
1000.087292  	90.240365 
1001.524199  	90.256261 
1002.961106  	90.263784 
1004.398013  	90.317629 
1005.834920  	90.361877 
1007.271827  	90.384618 
1008.708734  	90.405030 
1010.145641  	90.402542 
1011.582548  	90.440971 
1013.019455  	90.500230 
1014.456362  	90.546689 
1015.893269  	90.605618 
1017.330176  	90.620337 
1018.767083  	90.633953 
1020.203991  	90.675258 
1021.640898  	90.681025 
1023.077805  	90.713887 
1024.514712  	90.753619 
1025.951619  	90.761755 
1027.388526  	90.789545 
1028.825433  	90.754496 
1030.262340  	90.697951 
1031.699247  	90.716438 
1033.136154  	90.707187 
1034.573061  	90.683321 
1036.009968  	90.682071 
1037.446875  	90.661994 
1038.883782  	90.678892 
1040.320689  	90.708758 
1041.757596  	90.738064 
1043.194503  	90.820452 
1044.631410  	90.882718 
1046.068317  	90.909062 
1047.505224  	90.943211 
1048.942131  	90.979990 
1050.379038  	91.023851 
1051.815945  	91.050536 
1053.252852  	91.102672 
1054.689759  	91.183391 
1056.126666  	91.210205 
1057.563573  	91.244679 
1059.000480  	91.272970 
1060.437387  	91.252809 
1061.874294  	91.298626 
1063.311201  	91.349508 
1064.748108  	91.339489 
1066.185015  	91.345069 
1067.621922  	91.349550 
1069.058829  	91.385813 
1070.495737  	91.430860 
1071.932644  	91.411159 
1073.369551  	91.414787 
1074.806458  	91.419902 
1076.243365  	91.412368 
1077.680272  	91.460160 
1079.117179  	91.467925 
1080.554086  	91.460723 
1081.990993  	91.488897 
1083.427900  	91.463843 
1084.864807  	91.446688 
1086.301714  	91.444314 
1087.738621  	91.415157 
1089.175528  	91.422238 
1090.612435  	91.422186 
1092.049342  	91.437593 
1093.486249  	91.498380 
1094.923156  	91.501505 
1096.360063  	91.494195 
1097.796970  	91.495768 
1099.233877  	91.469888 
1100.670784  	91.490916 
1102.107691  	91.514243 
1103.544598  	91.526686 
1104.981505  	91.567231 
1106.418412  	91.556153 
1107.855319  	91.552376 
1109.292226  	91.603730 
1110.729133  	91.629006 
1112.166040  	91.643481 
1113.602947  	91.636053 
1115.039854  	91.617658 
1116.476761  	91.628686 
1117.913668  	91.619937 
1119.350575  	91.646649 
1120.787483  	91.713875 
1122.224390  	91.730618 
1123.661297  	91.755158 
1125.098204  	91.778866 
1126.535111  	91.769339 
1127.972018  	91.788966 
1129.408925  	91.791543 
1130.845832  	91.779804 
1132.282739  	91.797123 
1133.719646  	91.796137 
1135.156553  	91.798867 
1136.593460  	91.805356 
1138.030367  	91.799053 
1139.467274  	91.814157 
1140.904181  	91.804807 
1142.341088  	91.782233 
1143.777995  	91.787544 
1145.214902  	91.783710 
1146.651809  	91.792328 
1148.088716  	91.798221 
1149.525623  	91.790972 
1150.962530  	91.824858 
1152.399437  	91.828315 
1153.836344  	91.791968 
1155.273251  	91.793542 
1156.710158  	91.776344 
1158.147065  	91.740685 
1159.583972  	91.741123 
1161.020879  	91.745136 
1162.457786  	91.746263 
1163.894693  	91.751093 
1165.331600  	91.761557 
1166.768507  	91.773986 
1168.205414  	91.763708 
1169.642322  	91.755922 
1171.079229  	91.751374 
1172.516136  	91.736501 
1173.953043  	91.739047 
1175.389950  	91.734705 
1176.826857  	91.726309 
1178.263764  	91.737350 
1179.700671  	91.734916 
1181.137578  	91.737427 
1182.574485  	91.739515 
1184.011392  	91.721628 
1185.448299  	91.735267 
1186.885206  	91.743010 
1188.322113  	91.719332 
1189.759020  	91.725190 
1191.195927  	91.724572 
1192.632834  	91.700200 
1194.069741  	91.695394 
1195.506648  	91.695263 
1196.943555  	91.696015 
1198.380462  	91.695628 
1199.817369  	91.687881 
1201.254276  	91.686752 
1202.691183  	91.675483 
1204.128090  	91.659472 
1205.564997  	91.652446 
1207.001904  	91.648630 
1208.438811  	91.668021 
1209.875718  	91.688785 
1211.312625  	91.682473 
1212.749532  	91.670850 
1214.186439  	91.661822 
1215.623346  	91.670781 
1217.060253  	91.686179 
1218.497160  	91.672271 
1219.934068  	91.658736 
1221.370975  	91.658819 
1222.807882  	91.654291 
1224.244789  	91.649290 
1225.681696  	91.642083 
1227.118603  	91.644081 
1228.555510  	91.644617 
1229.992417  	91.632199 
1231.429324  	91.634974 
1232.866231  	91.628663 
1234.303138  	91.611894 
1235.740045  	91.622382 
1237.176952  	91.622641 
1238.613859  	91.613150 
1240.050766  	91.620290 
1241.487673  	91.615164 
1242.924580  	91.607173 
1244.361487  	91.597044 
1245.798394  	91.577729 
1247.235301  	91.571893 
1248.672208  	91.556530 
1250.109115  	91.538862 
1251.546022  	91.543348 
1252.982929  	91.541279 
1254.419836  	91.536497 
1255.856743  	91.527624 
1257.293650  	91.508691 
1258.730557  	91.507214 
1260.167464  	91.509712 
1261.604371  	91.517992 
1263.041278  	91.530150 
1264.478185  	91.512396 
1265.915092  	91.505999 
1267.351999  	91.518769 
1268.788907  	91.510501 
1270.225814  	91.504228 
1271.662721  	91.495649 
1273.099628  	91.482533 
1274.536535  	91.471489 
1275.973442  	91.437344 
1277.410349  	91.426542 
1278.847256  	91.441761 
1280.284163  	91.427770 
1281.721070  	91.425349 
1283.157977  	91.433233 
1284.594884  	91.427243 
1286.031791  	91.450574 
1287.468698  	91.478346 
1288.905605  	91.485504 
1290.342512  	91.492890 
1291.779419  	91.491732 
1293.216326  	91.492901 
1294.653233  	91.494436 
1296.090140  	91.493781 
1297.527047  	91.504877 
1298.963954  	91.502512 
1300.400861  	91.511321 
1301.837768  	91.528666 
1303.274675  	91.553988 
1304.711582  	91.548549 
1306.148489  	91.548185 
1307.585396  	91.556221 
1309.022303  	91.556739 
1310.459210  	91.564156 
1311.896117  	91.568249 
1313.333024  	91.576391 
1314.769931  	91.573260 
1316.206838  	91.566332 
1317.643745  	91.560509 
1319.080653  	91.552311 
1320.517560  	91.555692 
1321.954467  	91.547071 
1323.391374  	91.535817 
1324.828281  	91.536256 
1326.265188  	91.542692 
1327.702095  	91.544999 
1329.139002  	91.536697 
1330.575909  	91.506288 
1332.012816  	91.493363 
1333.449723  	91.506368 
1334.886630  	91.503556 
1336.323537  	91.503266 
1337.760444  	91.480407 
1339.197351  	91.467309 
1340.634258  	91.443940 
1342.071165  	91.427538 
1343.508072  	91.437108 
1344.944979  	91.436540 
1346.381886  	91.420151 
1347.818793  	91.410992 
1349.255700  	91.395977 
1350.692607  	91.377986 
1352.129514  	91.371956 
1353.566421  	91.348663 
1355.003328  	91.332616 
1356.440235  	91.318595 
1357.877142  	91.302125 
1359.314049  	91.290101 
1360.750956  	91.268362 
1362.187863  	91.212413 
1363.624770  	91.177913 
1365.061677  	91.174201 
1366.498584  	91.165094 
1367.935491  	91.137328 
1369.372399  	91.120271 
1370.809306  	91.106335 
1372.246213  	91.049784 
1373.683120  	90.977269 
1375.120027  	90.935084 
1376.556934  	90.898874 
1377.993841  	90.859119 
1379.430748  	90.841963 
1380.867655  	90.842887 
1382.304562  	90.833082 
1383.741469  	90.795846 
1385.178376  	90.747554 
1386.615283  	90.701293 
1388.052190  	90.678043 
1389.489097  	90.721868 
1390.926004  	90.764690 
1392.362911  	90.752742 
1393.799818  	90.744700 
1395.236725  	90.750848 
1396.673632  	90.750933 
1398.110539  	90.767246 
1399.547446  	90.770804 
1400.984353  	90.780700 
1402.421260  	90.804129 
1403.858167  	90.818139 
1405.295074  	90.857259 
1406.731981  	90.900100 
1408.168888  	90.922712 
1409.605795  	90.931241 
1411.042702  	90.958100 
1412.479609  	90.981416 
1413.916516  	91.014757 
1415.353423  	91.039027 
1416.790330  	91.057392 
1418.227238  	91.072436 
1419.664145  	91.042251 
1421.101052  	91.073641 
1422.537959  	91.120863 
1423.974866  	91.122771 
1425.411773  	91.142780 
1426.848680  	91.191822 
1428.285587  	91.224566 
1429.722494  	91.236429 
1431.159401  	91.214244 
1432.596308  	91.218683 
1434.033215  	91.237477 
1435.470122  	91.170633 
1436.907029  	91.060478 
1438.343936  	91.065151 
1439.780843  	91.150146 
1441.217750  	91.169428 
1442.654657  	91.163142 
1444.091564  	91.226861 
1445.528471  	91.250299 
1446.965378  	91.216453 
1448.402285  	91.165683 
1449.839192  	91.188560 
1451.276099  	91.235245 
1452.713006  	91.253343 
1454.149913  	91.222844 
1455.586820  	91.147105 
1457.023727  	91.063627 
1458.460634  	91.083980 
1459.897541  	91.138508 
1461.334448  	91.130645 
1462.771355  	91.122096 
1464.208262  	91.091798 
1465.645169  	91.056669 
1467.082076  	91.100680 
1468.518984  	91.131198 
1469.955891  	91.106466 
1471.392798  	91.084525 
1472.829705  	91.027737 
1474.266612  	90.972303 
1475.703519  	90.967077 
1477.140426  	90.940393 
1478.577333  	90.984539 
1480.014240  	91.017374 
1481.451147  	90.993613 
1482.888054  	90.978237 
1484.324961  	90.960893 
1485.761868  	90.916655 
1487.198775  	90.912349 
1488.635682  	90.905006 
1490.072589  	90.856819 
1491.509496  	90.834387 
1492.946403  	90.842832 
1494.383310  	90.831846 
1495.820217  	90.774024 
1497.257124  	90.715278 
1498.694031  	90.698008 
1500.130938  	90.656787 
1501.567845  	90.650556 
1503.004752  	90.675824 
1504.441659  	90.646723 
1505.878566  	90.598779 
1507.315473  	90.523737 
1508.752380  	90.396980 
1510.189287  	90.443019 
1511.626194  	90.412301 
1513.063101  	90.384991 
1514.500008  	90.416253 
1515.936915  	90.366030 
1517.373822  	90.274137 
1518.810730  	90.258101 
1520.247637  	90.237122 
1521.684544  	90.189810 
1523.121451  	90.057666 
1524.558358  	90.000854 
1525.995265  	89.968695 
1527.432172  	89.949753 
1528.869079  	89.963759 
1530.305986  	89.963112 
1531.742893  	89.876136 
1533.179800  	89.777217 
1534.616707  	89.616178 
1536.053614  	89.563193 
1537.490521  	89.547635 
1538.927428  	89.454008 
1540.364335  	89.376002 
1541.801242  	89.219040 
1543.238149  	88.992235 
1544.675056  	88.852993 
1546.111963  	88.763074 
1547.548870  	88.750567 
1548.985777  	88.718704 
1550.422684  	88.576701 
1551.859591  	88.443753 
1553.296498  	88.371591 
1554.733405  	88.209188 
1556.170312  	88.093791 
1557.607219  	88.005424 
1559.044126  	87.844462 
1560.481033  	87.511638 
1561.917940  	87.447881 
1563.354847  	87.370513 
1564.791754  	87.305032 
1566.228661  	87.174964 
1567.665569  	87.112027 
1569.102476  	87.016602 
1570.539383  	86.736383 
1571.976290  	86.639292 
1573.413197  	86.538342 
1574.850104  	86.392249 
1576.287011  	86.271360 
1577.723918  	86.048946 
1579.160825  	85.891662 
1580.597732  	85.746721 
1582.034639  	85.539071 
1583.471546  	85.407290 
1584.908453  	85.277999 
1586.345360  	85.114531 
1587.782267  	84.957420 
1589.219174  	84.724351 
1590.656081  	84.515825 
1592.092988  	84.328441 
1593.529895  	84.084497 
1594.966802  	83.857934 
1596.403709  	83.619472 
1597.840616  	83.354761 
1599.277523  	83.125326 
1600.714430  	82.795852 
1602.151337  	82.461044 
1603.588244  	82.144792 
1605.025151  	81.759431 
1606.462058  	81.419650 
1607.898965  	81.072521 
1609.335872  	80.681750 
1610.772779  	80.347621 
1612.209686  	79.947765 
1613.646593  	79.551293 
1615.083500  	79.291661 
1616.520407  	78.818758 
1617.957315  	78.330816 
1619.394222  	78.034881 
1620.831129  	77.672625 
1622.268036  	77.429465 
1623.704943  	77.077167 
1625.141850  	76.670563 
1626.578757  	76.501587 
1628.015664  	76.165115 
1629.452571  	75.910087 
1630.889478  	75.865910 
1632.326385  	75.745006 
1633.763292  	75.725104 
1635.200199  	75.625299 
1636.637106  	75.221304 
1638.074013  	75.420033 
1639.510920  	75.568214 
1640.947827  	75.647573 
1642.384734  	75.874695 
1643.821641  	75.967814 
1645.258548  	76.060990 
1646.695455  	76.314352 
1648.132362  	76.554322 
1649.569269  	76.930526 
1651.006176  	77.091358 
1652.443083  	76.887393 
1653.879990  	77.191757 
1655.316897  	77.805989 
1656.753804  	78.283340 
1658.190711  	78.635127 
1659.627618  	78.879335 
1661.064525  	79.263149 
1662.501432  	79.637964 
1663.938339  	79.953767 
1665.375246  	80.364760 
1666.812154  	80.743124 
1668.249061  	81.103608 
1669.685968  	81.580686 
1671.122875  	81.949136 
1672.559782  	82.273558 
1673.996689  	82.579865 
1675.433596  	82.868198 
1676.870503  	83.401311 
1678.307410  	83.849062 
1679.744317  	84.167106 
1681.181224  	84.547703 
1682.618131  	84.828509 
1684.055038  	85.150461 
1685.491945  	85.612401 
1686.928852  	85.901404 
1688.365759  	86.250098 
1689.802666  	86.595359 
1691.239573  	86.927278 
1692.676480  	87.312973 
1694.113387  	87.557929 
1695.550294  	87.792287 
1696.987201  	88.118099 
1698.424108  	88.307931 
1699.861015  	88.486550 
1701.297922  	88.744616 
1702.734829  	88.981778 
1704.171736  	89.288272 
1705.608643  	89.560716 
1707.045550  	89.769346 
1708.482457  	90.014032 
1709.919364  	90.221364 
1711.356271  	90.460475 
1712.793178  	90.701775 
1714.230085  	90.911048 
1715.666992  	91.196191 
1717.103900  	91.367646 
1718.540807  	91.392932 
1719.977714  	91.674310 
1721.414621  	91.928179 
1722.851528  	92.102327 
1724.288435  	92.291587 
1725.725342  	92.486053 
1727.162249  	92.713994 
1728.599156  	92.816862 
1730.036063  	92.881168 
1731.472970  	93.047261 
1732.909877  	93.159026 
1734.346784  	93.154602 
1735.783691  	93.235288 
1737.220598  	93.375917 
1738.657505  	93.481206 
1740.094412  	93.579815 
1741.531319  	93.663964 
1742.968226  	93.783925 
1744.405133  	93.852223 
1745.842040  	93.899920 
1747.278947  	93.999569 
1748.715854  	94.094820 
1750.152761  	94.176528 
1751.589668  	94.215495 
1753.026575  	94.254670 
1754.463482  	94.406792 
1755.900389  	94.482257 
1757.337296  	94.476230 
1758.774203  	94.562767 
1760.211110  	94.627074 
1761.648017  	94.659833 
1763.084924  	94.731796 
1764.521831  	94.821346 
1765.958738  	94.936321 
1767.395646  	94.951079 
1768.832553  	94.920705 
1770.269460  	94.984425 
1771.706367  	95.015342 
1773.143274  	95.011518 
1774.580181  	95.049881 
1776.017088  	95.033791 
1777.453995  	95.080858 
1778.890902  	95.162910 
1780.327809  	95.176405 
1781.764716  	95.212565 
1783.201623  	95.239049 
1784.638530  	95.229591 
1786.075437  	95.267087 
1787.512344  	95.334640 
1788.949251  	95.394232 
1790.386158  	95.382734 
1791.823065  	95.315949 
1793.259972  	95.378345 
1794.696879  	95.439629 
1796.133786  	95.440267 
1797.570693  	95.451078 
1799.007600  	95.435403 
1800.444507  	95.440946 
1801.881414  	95.482889 
1803.318321  	95.521876 
1804.755228  	95.580296 
1806.192135  	95.615737 
1807.629042  	95.605982 
1809.065949  	95.611861 
1810.502856  	95.601081 
1811.939763  	95.595155 
1813.376670  	95.604538 
1814.813577  	95.606881 
1816.250485  	95.651051 
1817.687392  	95.663235 
1819.124299  	95.618406 
1820.561206  	95.623345 
1821.998113  	95.621860 
1823.435020  	95.631525 
1824.871927  	95.647339 
1826.308834  	95.638624 
1827.745741  	95.678731 
1829.182648  	95.651309 
1830.619555  	95.588924 
1832.056462  	95.669257 
1833.493369  	95.713758 
1834.930276  	95.695523 
1836.367183  	95.710031 
1837.804090  	95.717010 
1839.240997  	95.734044 
1840.677904  	95.757828 
1842.114811  	95.732241 
1843.551718  	95.713898 
1844.988625  	95.675691 
1846.425532  	95.686976 
1847.862439  	95.738572 
1849.299346  	95.728745 
1850.736253  	95.753575 
1852.173160  	95.780321 
1853.610067  	95.697181 
1855.046974  	95.706023 
1856.483881  	95.699961 
1857.920788  	95.693099 
1859.357695  	95.827793 
1860.794602  	95.832585 
1862.231509  	95.771975 
1863.668416  	95.800520 
1865.105323  	95.782419 
1866.542231  	95.774868 
1867.979138  	95.717194 
1869.416045  	95.632427 
1870.852952  	95.674106 
1872.289859  	95.709004 
1873.726766  	95.709681 
1875.163673  	95.757857 
1876.600580  	95.757866 
1878.037487  	95.773274 
1879.474394  	95.773167 
1880.911301  	95.772967 
1882.348208  	95.803675 
1883.785115  	95.804841 
1885.222022  	95.813816 
1886.658929  	95.808249 
1888.095836  	95.755570 
1889.532743  	95.762004 
1890.969650  	95.714774 
1892.406557  	95.661737 
1893.843464  	95.719052 
1895.280371  	95.693097 
1896.717278  	95.679943 
1898.154185  	95.784206 
1899.591092  	95.846040 
1901.027999  	95.830502 
1902.464906  	95.800940 
1903.901813  	95.796065 
1905.338720  	95.829528 
1906.775627  	95.760122 
1908.212534  	95.716280 
1909.649441  	95.771848 
1911.086348  	95.723230 
1912.523255  	95.699555 
1913.960162  	95.706340 
1915.397069  	95.663514 
1916.833977  	95.673748 
1918.270884  	95.588003 
1919.707791  	95.573016 
1921.144698  	95.699413 
1922.581605  	95.677626 
1924.018512  	95.671024 
1925.455419  	95.752003 
1926.892326  	95.650420 
1928.329233  	95.559795 
1929.766140  	95.505761 
1931.203047  	95.523533 
1932.639954  	95.594317 
1934.076861  	95.512279 
1935.513768  	95.454873 
1936.950675  	95.526579 
1938.387582  	95.504308 
1939.824489  	95.505287 
1941.261396  	95.491769 
1942.698303  	95.395725 
1944.135210  	95.450979 
1945.572117  	95.436637 
1947.009024  	95.462317 
1948.445931  	95.698694 
1949.882838  	95.686133 
1951.319745  	95.486694 
1952.756652  	95.407315 
1954.193559  	95.476908 
1955.630466  	95.668270 
1957.067373  	95.606146 
1958.504280  	95.528087 
1959.941187  	95.561002 
1961.378094  	95.362852 
1962.815001  	95.426812 
1964.251908  	95.586313 
1965.688816  	95.420543 
1967.125723  	95.556029 
1968.562630  	95.727825 
1969.999537  	95.622832 
1971.436444  	95.587588 
1972.873351  	95.520558 
1974.310258  	95.514701 
1975.747165  	95.522664 
1977.184072  	95.364797 
1978.620979  	95.191657 
1980.057886  	95.027582 
1981.494793  	95.056783 
1982.931700  	95.224654 
1984.368607  	95.181085 
1985.805514  	95.209908 
1987.242421  	95.302727 
1988.679328  	95.321964 
1990.116235  	95.360961 
1991.553142  	95.332652 
1992.990049  	95.364753 
1994.426956  	95.472253 
1995.863863  	95.451786 
1997.300770  	95.677123 
1998.737677  	95.874628 
2000.174584  	95.580745 
2001.611491  	95.609420 
2003.048398  	95.766705 
2004.485305  	95.747814 
2005.922212  	95.854442 
2007.359119  	95.726460 
2008.796026  	95.692255 
2010.232933  	95.844223 
2011.669840  	95.704967 
2013.106747  	95.657020 
2014.543654  	95.636509 
2015.980562  	95.571420 
2017.417469  	95.646957 
2018.854376  	95.631622 
2020.291283  	95.806908 
2021.728190  	95.765570 
2023.165097  	95.440755 
2024.602004  	95.871262 
2026.038911  	96.223947 
2027.475818  	95.910637 
2028.912725  	95.866664 
2030.349632  	95.858432 
2031.786539  	95.776093 
2033.223446  	95.733106 
2034.660353  	95.618349 
2036.097260  	95.749849 
2037.534167  	95.577403 
2038.971074  	95.320115 
2040.407981  	95.573089 
2041.844888  	95.481153 
2043.281795  	95.311136 
2044.718702  	95.537125 
2046.155609  	95.369981 
2047.592516  	95.219741 
2049.029423  	95.337638 
2050.466330  	95.157718 
2051.903237  	95.061478 
2053.340144  	95.171744 
2054.777051  	95.241814 
2056.213958  	95.232998 
2057.650865  	95.147108 
2059.087772  	95.257861 
2060.524679  	95.353357 
2061.961586  	95.103721 
2063.398493  	94.992361 
2064.835401  	95.112969 
2066.272308  	95.101558 
2067.709215  	95.037157 
2069.146122  	95.063801 
2070.583029  	95.062483 
2072.019936  	94.835278 
2073.456843  	94.692621 
2074.893750  	94.900346 
2076.330657  	94.991547 
2077.767564  	94.932086 
2079.204471  	94.988672 
2080.641378  	94.947931 
2082.078285  	94.914918 
2083.515192  	94.979259 
2084.952099  	94.911241 
2086.389006  	94.765208 
2087.825913  	94.663030 
2089.262820  	94.712653 
2090.699727  	94.798707 
2092.136634  	94.730944 
2093.573541  	94.817358 
2095.010448  	94.922821 
2096.447355  	94.716524 
2097.884262  	94.682133 
2099.321169  	94.811821 
2100.758076  	94.720943 
2102.194983  	94.608415 
2103.631890  	94.599625 
2105.068797  	94.659692 
2106.505704  	94.655643 
2107.942611  	94.573836 
2109.379518  	94.661935 
2110.816425  	94.670998 
2112.253332  	94.544746 
2113.690239  	94.624902 
2115.127147  	94.637253 
2116.564054  	94.542037 
2118.000961  	94.592104 
2119.437868  	94.580589 
2120.874775  	94.542340 
2122.311682  	94.543479 
2123.748589  	94.521917 
2125.185496  	94.649798 
2126.622403  	94.758551 
2128.059310  	94.790328 
2129.496217  	94.921419 
2130.933124  	94.964128 
2132.370031  	95.001969 
2133.806938  	94.989997 
2135.243845  	94.653335 
2136.680752  	94.439732 
2138.117659  	94.628932 
2139.554566  	94.855569 
2140.991473  	94.829604 
2142.428380  	94.690822 
2143.865287  	94.949630 
2145.302194  	95.180959 
2146.739101  	94.897924 
2148.176008  	94.722747 
2149.612915  	94.660191 
2151.049822  	94.767393 
2152.486729  	95.262049 
2153.923636  	95.315963 
2155.360543  	95.186906 
2156.797450  	95.234354 
2158.234357  	94.771020 
2159.671264  	94.375333 
2161.108171  	94.299405 
2162.545078  	94.287275 
2163.981985  	94.662671 
2165.418893  	94.672961 
2166.855800  	94.370324 
2168.292707  	94.462946 
2169.729614  	94.620232 
2171.166521  	94.746422 
2172.603428  	94.736453 
2174.040335  	94.717105 
2175.477242  	95.069043 
2176.914149  	95.113808 
2178.351056  	94.987967 
2179.787963  	95.200163 
2181.224870  	95.031062 
2182.661777  	94.745971 
2184.098684  	94.900819 
2185.535591  	94.925586 
2186.972498  	94.847382 
2188.409405  	95.009973 
2189.846312  	95.280386 
2191.283219  	95.302080 
2192.720126  	95.042302 
2194.157033  	95.089249 
2195.593940  	95.411080 
2197.030847  	95.573788 
2198.467754  	95.645608 
2199.904661  	95.517843 
2201.341568  	95.338533 
2202.778475  	95.378829 
2204.215382  	95.525663 
2205.652289  	95.730649 
2207.089196  	95.754924 
2208.526103  	95.703342 
2209.963010  	95.841753 
2211.399917  	95.654620 
2212.836824  	95.452934 
2214.273732  	95.793255 
2215.710639  	95.936054 
2217.147546  	95.726580 
2218.584453  	95.629770 
2220.021360  	95.641709 
2221.458267  	95.804673 
2222.895174  	95.861773 
2224.332081  	95.702996 
2225.768988  	95.690532 
2227.205895  	95.780008 
2228.642802  	95.893017 
2230.079709  	95.976824 
2231.516616  	95.902445 
2232.953523  	95.866474 
2234.390430  	95.836642 
2235.827337  	95.781495 
2237.264244  	95.895545 
2238.701151  	96.039454 
2240.138058  	96.083948 
2241.574965  	95.977866 
2243.011872  	95.852659 
2244.448779  	96.006176 
2245.885686  	96.121868 
2247.322593  	95.995709 
2248.759500  	95.974868 
2250.196407  	96.038173 
2251.633314  	96.090043 
2253.070221  	96.133081 
2254.507128  	96.091206 
2255.944035  	96.080976 
2257.380942  	96.032756 
2258.817849  	95.961857 
2260.254756  	96.058563 
2261.691663  	96.111786 
2263.128570  	96.073208 
2264.565478  	96.074515 
2266.002385  	96.036005 
2267.439292  	96.021300 
2268.876199  	95.964045 
2270.313106  	95.845927 
2271.750013  	95.860320 
2273.186920  	95.868260 
2274.623827  	95.864386 
2276.060734  	95.948031 
2277.497641  	95.910153 
2278.934548  	95.833874 
2280.371455  	95.819616 
2281.808362  	95.768956 
2283.245269  	95.796883 
2284.682176  	95.852886 
2286.119083  	95.834234 
2287.555990  	95.838093 
2288.992897  	95.848406 
2290.429804  	95.876446 
2291.866711  	95.929099 
2293.303618  	95.962144 
2294.740525  	95.883139 
2296.177432  	95.994687 
2297.614339  	95.930803 
2299.051246  	95.905601 
2300.488153  	95.922129 
2301.925060  	95.920966 
2303.361967  	96.018977 
2304.798874  	96.002466 
2306.235781  	95.928207 
2307.672688  	95.957996 
2309.109595  	95.980885 
2310.546502  	95.941151 
2311.983409  	95.931999 
2313.420317  	96.013290 
2314.857224  	96.045194 
2316.294131  	95.973176 
2317.731038  	96.003076 
2319.167945  	96.029236 
2320.604852  	95.888575 
2322.041759  	95.808518 
2323.478666  	95.803909 
2324.915573  	95.822910 
2326.352480  	95.986524 
2327.789387  	96.171442 
2329.226294  	96.218707 
2330.663201  	96.139415 
2332.100108  	96.099462 
2333.537015  	96.205227 
2334.973922  	96.197133 
2336.410829  	96.064825 
2337.847736  	96.127911 
2339.284643  	96.227486 
2340.721550  	96.123762 
2342.158457  	96.015629 
2343.595364  	96.028085 
2345.032271  	96.033035 
2346.469178  	96.030711 
2347.906085  	96.189698 
2349.342992  	96.362785 
2350.779899  	96.357875 
2352.216806  	96.347347 
2353.653713  	96.469887 
2355.090620  	96.454975 
2356.527527  	96.389744 
2357.964434  	96.446172 
2359.401341  	96.426149 
2360.838248  	96.392620 
2362.275155  	96.439789 
2363.712063  	96.431223 
2365.148970  	96.313701 
2366.585877  	96.199315 
2368.022784  	96.248360 
2369.459691  	96.333044 
2370.896598  	96.262717 
2372.333505  	96.201100 
2373.770412  	96.261629 
2375.207319  	96.340146 
2376.644226  	96.389226 
2378.081133  	96.440286 
2379.518040  	96.481874 
2380.954947  	96.452337 
2382.391854  	96.414268 
2383.828761  	96.463287 
2385.265668  	96.525313 
2386.702575  	96.539933 
2388.139482  	96.551948 
2389.576389  	96.576140 
2391.013296  	96.611486 
2392.450203  	96.644082 
2393.887110  	96.673116 
2395.324017  	96.695679 
2396.760924  	96.683877 
2398.197831  	96.680451 
2399.634738  	96.693039 
2401.071645  	96.672439 
2402.508552  	96.672163 
2403.945459  	96.710343 
2405.382366  	96.718901 
2406.819273  	96.696897 
2408.256180  	96.681916 
2409.693087  	96.672505 
2411.129994  	96.634226 
2412.566901  	96.618979 
2414.003809  	96.681279 
2415.440716  	96.704653 
2416.877623  	96.675181 
2418.314530  	96.683366 
2419.751437  	96.654916 
2421.188344  	96.595988 
2422.625251  	96.591087 
2424.062158  	96.601090 
2425.499065  	96.611467 
2426.935972  	96.607377 
2428.372879  	96.584173 
2429.809786  	96.574579 
2431.246693  	96.540172 
2432.683600  	96.526060 
2434.120507  	96.561482 
2435.557414  	96.558826 
2436.994321  	96.561543 
2438.431228  	96.577917 
2439.868135  	96.561967 
2441.305042  	96.580198 
2442.741949  	96.577615 
2444.178856  	96.538001 
2445.615763  	96.567562 
2447.052670  	96.604414 
2448.489577  	96.614626 
2449.926484  	96.618956 
2451.363391  	96.582768 
2452.800298  	96.585978 
2454.237205  	96.627829 
2455.674112  	96.631092 
2457.111019  	96.659046 
2458.547926  	96.696158 
2459.984833  	96.683528 
2461.421740  	96.666495 
2462.858648  	96.661152 
2464.295555  	96.677102 
2465.732462  	96.712914 
2467.169369  	96.718391 
2468.606276  	96.698451 
2470.043183  	96.695077 
2471.480090  	96.708511 
2472.916997  	96.716462 
2474.353904  	96.745581 
2475.790811  	96.797089 
2477.227718  	96.793929 
2478.664625  	96.771464 
2480.101532  	96.785416 
2481.538439  	96.782606 
2482.975346  	96.795762 
2484.412253  	96.826303 
2485.849160  	96.805180 
2487.286067  	96.799426 
2488.722974  	96.834159 
2490.159881  	96.849580 
2491.596788  	96.837134 
2493.033695  	96.813159 
2494.470602  	96.838596 
2495.907509  	96.884527 
2497.344416  	96.877971 
2498.781323  	96.884913 
2500.218230  	96.897246 
2501.655137  	96.881144 
2503.092044  	96.899479 
2504.528951  	96.924111 
2505.965858  	96.934536 
2507.402765  	96.935328 
2508.839672  	96.914555 
2510.276579  	96.944751 
2511.713486  	96.985424 
2513.150394  	96.965199 
2514.587301  	96.940829 
2516.024208  	96.899652 
2517.461115  	96.886018 
2518.898022  	96.945397 
2520.334929  	96.964198 
2521.771836  	96.956534 
2523.208743  	96.950024 
2524.645650  	96.907364 
2526.082557  	96.922915 
2527.519464  	96.979026 
2528.956371  	97.003185 
2530.393278  	97.040321 
2531.830185  	97.059362 
2533.267092  	97.068519 
2534.703999  	97.091573 
2536.140906  	97.065753 
2537.577813  	97.052918 
2539.014720  	97.089477 
2540.451627  	97.097555 
2541.888534  	97.088593 
2543.325441  	97.087614 
2544.762348  	97.086947 
2546.199255  	97.088117 
2547.636162  	97.091867 
2549.073069  	97.105736 
2550.509976  	97.117949 
2551.946883  	97.160742 
2553.383790  	97.218536 
2554.820697  	97.185775 
2556.257604  	97.136182 
2557.694511  	97.167512 
2559.131418  	97.197001 
2560.568325  	97.195712 
2562.005232  	97.195170 
2563.442140  	97.204305 
2564.879047  	97.217515 
2566.315954  	97.210223 
2567.752861  	97.222392 
2569.189768  	97.236214 
2570.626675  	97.210043 
2572.063582  	97.242339 
2573.500489  	97.311477 
2574.937396  	97.316740 
2576.374303  	97.311818 
2577.811210  	97.314314 
2579.248117  	97.311491 
2580.685024  	97.322068 
2582.121931  	97.322887 
2583.558838  	97.327234 
2584.995745  	97.334790 
2586.432652  	97.335753 
2587.869559  	97.362736 
2589.306466  	97.385340 
2590.743373  	97.383462 
2592.180280  	97.371037 
2593.617187  	97.353207 
2595.054094  	97.377177 
2596.491001  	97.407775 
2597.927908  	97.379725 
2599.364815  	97.340533 
2600.801722  	97.336749 
2602.238629  	97.378202 
2603.675536  	97.402163 
2605.112443  	97.361467 
2606.549350  	97.363811 
2607.986257  	97.410402 
2609.423164  	97.406274 
2610.860071  	97.383228 
2612.296979  	97.354608 
2613.733886  	97.336368 
2615.170793  	97.351304 
2616.607700  	97.336147 
2618.044607  	97.319036 
2619.481514  	97.340082 
2620.918421  	97.349649 
2622.355328  	97.351475 
2623.792235  	97.333766 
2625.229142  	97.303819 
2626.666049  	97.317704 
2628.102956  	97.329034 
2629.539863  	97.306174 
2630.976770  	97.285585 
2632.413677  	97.277511 
2633.850584  	97.286459 
2635.287491  	97.279434 
2636.724398  	97.248778 
2638.161305  	97.225934 
2639.598212  	97.192952 
2641.035119  	97.172254 
2642.472026  	97.177158 
2643.908933  	97.172785 
2645.345840  	97.189229 
2646.782747  	97.205943 
2648.219654  	97.177983 
2649.656561  	97.146834 
2651.093468  	97.111556 
2652.530375  	97.080558 
2653.967282  	97.087255 
2655.404189  	97.087536 
2656.841096  	97.076075 
2658.278003  	97.073224 
2659.714910  	97.068367 
2661.151817  	97.084221 
2662.588725  	97.101235 
2664.025632  	97.092334 
2665.462539  	97.097098 
2666.899446  	97.119383 
2668.336353  	97.124832 
2669.773260  	97.096658 
2671.210167  	97.067641 
2672.647074  	97.074999 
2674.083981  	97.073467 
2675.520888  	97.061533 
2676.957795  	97.068487 
2678.394702  	97.033040 
2679.831609  	96.983249 
2681.268516  	96.984495 
2682.705423  	96.976175 
2684.142330  	96.958372 
2685.579237  	96.970184 
2687.016144  	96.971728 
2688.453051  	96.958229 
2689.889958  	96.944101 
2691.326865  	96.926043 
2692.763772  	96.910713 
2694.200679  	96.897371 
2695.637586  	96.895400 
2697.074493  	96.884297 
2698.511400  	96.845675 
2699.948307  	96.832107 
2701.385214  	96.842842 
2702.822121  	96.832360 
2704.259028  	96.825088 
2705.695935  	96.835254 
2707.132842  	96.832849 
2708.569749  	96.811602 
2710.006656  	96.795598 
2711.443564  	96.788406 
2712.880471  	96.762944 
2714.317378  	96.743007 
2715.754285  	96.756792 
2717.191192  	96.755097 
2718.628099  	96.729095 
2720.065006  	96.720945 
2721.501913  	96.723344 
2722.938820  	96.722235 
2724.375727  	96.718164 
2725.812634  	96.701805 
2727.249541  	96.677705 
2728.686448  	96.663288 
2730.123355  	96.655073 
2731.560262  	96.638202 
2732.997169  	96.636621 
2734.434076  	96.656500 
2735.870983  	96.655197 
2737.307890  	96.644187 
2738.744797  	96.632565 
2740.181704  	96.597981 
2741.618611  	96.590204 
2743.055518  	96.605780 
2744.492425  	96.581433 
2745.929332  	96.556093 
2747.366239  	96.553119 
2748.803146  	96.543202 
2750.240053  	96.533458 
2751.676960  	96.511427 
2753.113867  	96.482441 
2754.550774  	96.474150 
2755.987681  	96.472795 
2757.424588  	96.470468 
2758.861495  	96.449349 
2760.298402  	96.410391 
2761.735310  	96.401738 
2763.172217  	96.406087 
2764.609124  	96.395694 
2766.046031  	96.388236 
2767.482938  	96.372777 
2768.919845  	96.365084 
2770.356752  	96.376626 
2771.793659  	96.358973 
2773.230566  	96.318324 
2774.667473  	96.296260 
2776.104380  	96.291746 
2777.541287  	96.291492 
2778.978194  	96.284863 
2780.415101  	96.276751 
2781.852008  	96.269196 
2783.288915  	96.255103 
2784.725822  	96.243100 
2786.162729  	96.224043 
2787.599636  	96.207045 
2789.036543  	96.217615 
2790.473450  	96.203136 
2791.910357  	96.140359 
2793.347264  	96.102562 
2794.784171  	96.101481 
2796.221078  	96.088543 
2797.657985  	96.055641 
2799.094892  	96.020574 
2800.531799  	96.009572 
2801.968706  	96.016213 
2803.405613  	95.997102 
2804.842520  	95.964664 
2806.279427  	95.952684 
2807.716334  	95.941888 
2809.153241  	95.928992 
2810.590148  	95.913455 
2812.027056  	95.868424 
2813.463963  	95.835208 
2814.900870  	95.841181 
2816.337777  	95.831728 
2817.774684  	95.816961 
2819.211591  	95.814736 
2820.648498  	95.786058 
2822.085405  	95.753327 
2823.522312  	95.721452 
2824.959219  	95.670568 
2826.396126  	95.646326 
2827.833033  	95.637520 
2829.269940  	95.617704 
2830.706847  	95.611632 
2832.143754  	95.587444 
2833.580661  	95.550647 
2835.017568  	95.539240 
2836.454475  	95.512436 
2837.891382  	95.473473 
2839.328289  	95.447455 
2840.765196  	95.417106 
2842.202103  	95.399794 
2843.639010  	95.383355 
2845.075917  	95.335112 
2846.512824  	95.273492 
2847.949731  	95.223311 
2849.386638  	95.204699 
2850.823545  	95.189304 
2852.260452  	95.142520 
2853.697359  	95.097075 
2855.134266  	95.054558 
2856.571173  	95.022530 
2858.008080  	95.019014 
2859.444987  	94.988467 
2860.881895  	94.945035 
2862.318802  	94.926662 
2863.755709  	94.900399 
2865.192616  	94.890291 
2866.629523  	94.877599 
2868.066430  	94.820912 
2869.503337  	94.791513 
2870.940244  	94.783824 
2872.377151  	94.748464 
2873.814058  	94.709669 
2875.250965  	94.658985 
2876.687872  	94.615786 
2878.124779  	94.589573 
2879.561686  	94.543903 
2880.998593  	94.525382 
2882.435500  	94.514469 
2883.872407  	94.442467 
2885.309314  	94.380284 
2886.746221  	94.351160 
2888.183128  	94.304524 
2889.620035  	94.262102 
2891.056942  	94.226860 
2892.493849  	94.178867 
2893.930756  	94.131682 
2895.367663  	94.097144 
2896.804570  	94.060495 
2898.241477  	94.003524 
2899.678384  	93.961080 
2901.115291  	93.931425 
2902.552198  	93.860781 
2903.989105  	93.785513 
2905.426012  	93.736094 
2906.862919  	93.692927 
2908.299826  	93.664808 
2909.736733  	93.611066 
2911.173641  	93.529705 
2912.610548  	93.484318 
2914.047455  	93.450613 
2915.484362  	93.405071 
2916.921269  	93.343493 
2918.358176  	93.250479 
2919.795083  	93.178076 
2921.231990  	93.116282 
2922.668897  	93.026962 
2924.105804  	92.967820 
2925.542711  	92.934472 
2926.979618  	92.888467 
2928.416525  	92.837341 
2929.853432  	92.767653 
2931.290339  	92.691568 
2932.727246  	92.621328 
2934.164153  	92.564031 
2935.601060  	92.533063 
2937.037967  	92.482074 
2938.474874  	92.425104 
2939.911781  	92.393202 
2941.348688  	92.335405 
2942.785595  	92.288678 
2944.222502  	92.261539 
2945.659409  	92.181371 
2947.096316  	92.102437 
2948.533223  	92.040893 
2949.970130  	91.951830 
2951.407037  	91.884220 
2952.843944  	91.822264 
2954.280851  	91.724337 
2955.717758  	91.623001 
2957.154665  	91.535812 
2958.591572  	91.477825 
2960.028479  	91.417521 
2961.465387  	91.336676 
2962.902294  	91.290626 
2964.339201  	91.232039 
2965.776108  	91.128614 
2967.213015  	91.048177 
2968.649922  	90.961231 
2970.086829  	90.848307 
2971.523736  	90.759288 
2972.960643  	90.677095 
2974.397550  	90.582617 
2975.834457  	90.490616 
2977.271364  	90.409289 
2978.708271  	90.314103 
2980.145178  	90.184171 
2981.582085  	90.078624 
2983.018992  	90.004819 
2984.455899  	89.918694 
2985.892806  	89.853309 
2987.329713  	89.783693 
2988.766620  	89.672273 
2990.203527  	89.561587 
2991.640434  	89.440071 
2993.077341  	89.315269 
2994.514248  	89.216600 
2995.951155  	89.106845 
2997.388062  	88.996862 
2998.824969  	88.895034 
3000.261876  	88.777666 
3001.698783  	88.665745 
3003.135690  	88.554042 
3004.572597  	88.439581 
3006.009504  	88.325255 
3007.446411  	88.202111 
3008.883318  	88.096580 
3010.320226  	87.968227 
3011.757133  	87.814942 
3013.194040  	87.719473 
3014.630947  	87.609010 
3016.067854  	87.443639 
3017.504761  	87.303844 
3018.941668  	87.161930 
3020.378575  	87.025532 
3021.815482  	86.918987 
3023.252389  	86.773289 
3024.689296  	86.612148 
3026.126203  	86.477913 
3027.563110  	86.346653 
3029.000017  	86.206036 
3030.436924  	86.045896 
3031.873831  	85.896149 
3033.310738  	85.747913 
3034.747645  	85.573373 
3036.184552  	85.431919 
3037.621459  	85.296576 
3039.058366  	85.124844 
3040.495273  	84.966875 
3041.932180  	84.801117 
3043.369087  	84.610741 
3044.805994  	84.429849 
3046.242901  	84.288557 
3047.679808  	84.185880 
3049.116715  	84.016161 
3050.553622  	83.802778 
3051.990529  	83.642671 
3053.427436  	83.452153 
3054.864343  	83.269615 
3056.301250  	83.143784 
3057.738157  	82.953640 
3059.175064  	82.756968 
3060.611972  	82.588369 
3062.048879  	82.389268 
3063.485786  	82.230688 
3064.922693  	82.064536 
3066.359600  	81.855768 
3067.796507  	81.666869 
3069.233414  	81.445786 
3070.670321  	81.251256 
3072.107228  	81.110142 
3073.544135  	80.914792 
3074.981042  	80.708778 
3076.417949  	80.504732 
3077.854856  	80.292290 
3079.291763  	80.103337 
3080.728670  	79.859762 
3082.165577  	79.618373 
3083.602484  	79.444599 
3085.039391  	79.256180 
3086.476298  	79.063186 
3087.913205  	78.829538 
3089.350112  	78.578242 
3090.787019  	78.405250 
3092.223926  	78.195406 
3093.660833  	77.967796 
3095.097740  	77.797842 
3096.534647  	77.562618 
3097.971554  	77.308882 
3099.408461  	77.092524 
3100.845368  	76.869154 
3102.282275  	76.652732 
3103.719182  	76.375314 
3105.156089  	76.104901 
3106.592996  	75.921790 
3108.029903  	75.708720 
3109.466811  	75.488703 
3110.903718  	75.261094 
3112.340625  	74.996160 
3113.777532  	74.787090 
3115.214439  	74.558251 
3116.651346  	74.312973 
3118.088253  	74.107476 
3119.525160  	73.836280 
3120.962067  	73.592938 
3122.398974  	73.385818 
3123.835881  	73.119532 
3125.272788  	72.903852 
3126.709695  	72.660955 
3128.146602  	72.377078 
3129.583509  	72.175691 
3131.020416  	71.926934 
3132.457323  	71.669064 
3133.894230  	71.470513 
3135.331137  	71.224902 
3136.768044  	70.990945 
3138.204951  	70.736565 
3139.641858  	70.475900 
3141.078765  	70.287368 
3142.515672  	70.013924 
3143.952579  	69.738006 
3145.389486  	69.541150 
3146.826393  	69.281751 
3148.263300  	69.057923 
3149.700207  	68.838679 
3151.137114  	68.583789 
3152.574021  	68.415187 
3154.010928  	68.170220 
3155.447835  	67.891597 
3156.884742  	67.702683 
3158.321649  	67.431392 
3159.758557  	67.184532 
3161.195464  	67.009729 
3162.632371  	66.769365 
3164.069278  	66.542504 
3165.506185  	66.311917 
3166.943092  	66.103147 
3168.379999  	65.923791 
3169.816906  	65.660670 
3171.253813  	65.475553 
3172.690720  	65.328800 
3174.127627  	65.081900 
3175.564534  	64.892455 
3177.001441  	64.677388 
3178.438348  	64.431267 
3179.875255  	64.280708 
3181.312162  	64.084245 
3182.749069  	63.886651 
3184.185976  	63.692326 
3185.622883  	63.449958 
3187.059790  	63.297070 
3188.496697  	63.100430 
3189.933604  	62.881168 
3191.370511  	62.767763 
3192.807418  	62.571976 
3194.244325  	62.398282 
3195.681232  	62.274173 
3197.118139  	62.049989 
3198.555046  	61.899306 
3199.991953  	61.738598 
3201.428860  	61.527086 
3202.865767  	61.426878 
3204.302674  	61.291618 
3205.739581  	61.184370 
3207.176488  	61.108962 
3208.613395  	60.907172 
3210.050303  	60.780133 
3211.487210  	60.661250 
3212.924117  	60.471489 
3214.361024  	60.378085 
3215.797931  	60.250368 
3217.234838  	60.155522 
3218.671745  	60.100560 
3220.108652  	59.899211 
3221.545559  	59.775532 
3222.982466  	59.692948 
3224.419373  	59.567607 
3225.856280  	59.562621 
3227.293187  	59.476166 
3228.730094  	59.373102 
3230.167001  	59.354841 
3231.603908  	59.203027 
3233.040815  	59.117656 
3234.477722  	59.074390 
3235.914629  	58.930345 
3237.351536  	58.925501 
3238.788443  	58.912005 
3240.225350  	58.830854 
3241.662257  	58.799271 
3243.099164  	58.686621 
3244.536071  	58.644917 
3245.972978  	58.617480 
3247.409885  	58.487893 
3248.846792  	58.504903 
3250.283699  	58.497572 
3251.720606  	58.438194 
3253.157513  	58.484344 
3254.594420  	58.412246 
3256.031327  	58.343191 
3257.468234  	58.314087 
3258.905142  	58.202779 
3260.342049  	58.243039 
3261.778956  	58.258786 
3263.215863  	58.178114 
3264.652770  	58.203871 
3266.089677  	58.123114 
3267.526584  	58.061645 
3268.963491  	58.123115 
3270.400398  	58.072858 
3271.837305  	58.058254 
3273.274212  	58.030002 
3274.711119  	57.937917 
3276.148026  	57.975335 
3277.584933  	57.965665 
3279.021840  	57.947222 
3280.458747  	57.975579 
3281.895654  	57.903625 
3283.332561  	57.917919 
3284.769468  	57.924047 
3286.206375  	57.848710 
3287.643282  	57.913527 
3289.080189  	57.931142 
3290.517096  	57.900574 
3291.954003  	57.904497 
3293.390910  	57.801388 
3294.827817  	57.779739 
3296.264724  	57.785232 
3297.701631  	57.722501 
3299.138538  	57.756335 
3300.575445  	57.717895 
3302.012352  	57.685379 
3303.449259  	57.737357 
3304.886166  	57.656322 
3306.323073  	57.651357 
3307.759980  	57.678567 
3309.196888  	57.608184 
3310.633795  	57.685668 
3312.070702  	57.690135 
3313.507609  	57.588105 
3314.944516  	57.611379 
3316.381423  	57.596954 
3317.818330  	57.616637 
3319.255237  	57.651969 
3320.692144  	57.592543 
3322.129051  	57.623507 
3323.565958  	57.605383 
3325.002865  	57.550919 
3326.439772  	57.580009 
3327.876679  	57.499548 
3329.313586  	57.500736 
3330.750493  	57.569197 
3332.187400  	57.507796 
3333.624307  	57.552941 
3335.061214  	57.568354 
3336.498121  	57.487035 
3337.935028  	57.513518 
3339.371935  	57.496825 
3340.808842  	57.527691 
3342.245749  	57.578640 
3343.682656  	57.494253 
3345.119563  	57.522722 
3346.556470  	57.538660 
3347.993377  	57.499031 
3349.430284  	57.580856 
3350.867191  	57.554384 
3352.304098  	57.569868 
3353.741005  	57.672878 
3355.177912  	57.610376 
3356.614819  	57.653199 
3358.051726  	57.721464 
3359.488634  	57.677886 
3360.925541  	57.753298 
3362.362448  	57.735346 
3363.799355  	57.710028 
3365.236262  	57.860526 
3366.673169  	57.911982 
3368.110076  	57.953506 
3369.546983  	57.997748 
3370.983890  	57.999087 
3372.420797  	58.120342 
3373.857704  	58.165471 
3375.294611  	58.199430 
3376.731518  	58.322592 
3378.168425  	58.336048 
3379.605332  	58.434803 
3381.042239  	58.538203 
3382.479146  	58.519203 
3383.916053  	58.648110 
3385.352960  	58.744394 
3386.789867  	58.791666 
3388.226774  	58.918686 
3389.663681  	58.925734 
3391.100588  	59.011404 
3392.537495  	59.161194 
3393.974402  	59.207215 
3395.411309  	59.394884 
3396.848216  	59.560491 
3398.285123  	59.632094 
3399.722030  	59.742602 
3401.158937  	59.755060 
3402.595844  	59.862992 
3404.032751  	60.033574 
3405.469658  	60.100963 
3406.906565  	60.300985 
3408.343473  	60.447990 
3409.780380  	60.519805 
3411.217287  	60.713321 
3412.654194  	60.784377 
3414.091101  	60.889696 
3415.528008  	61.097646 
3416.964915  	61.184366 
3418.401822  	61.376603 
3419.838729  	61.574164 
3421.275636  	61.654172 
3422.712543  	61.819476 
3424.149450  	61.940099 
3425.586357  	62.112328 
3427.023264  	62.342008 
3428.460171  	62.426608 
3429.897078  	62.590734 
3431.333985  	62.768786 
3432.770892  	62.885522 
3434.207799  	63.113692 
3435.644706  	63.247282 
3437.081613  	63.378937 
3438.518520  	63.622820 
3439.955427  	63.788967 
3441.392334  	64.015152 
3442.829241  	64.179165 
3444.266148  	64.224327 
3445.703055  	64.454126 
3447.139962  	64.653817 
3448.576869  	64.750095 
3450.013776  	64.908856 
3451.450683  	65.056080 
3452.887590  	65.299949 
3454.324497  	65.500524 
3455.761404  	65.614120 
3457.198311  	65.875034 
3458.635219  	66.033909 
3460.072126  	66.116146 
3461.509033  	66.344340 
3462.945940  	66.519477 
3464.382847  	66.691071 
3465.819754  	66.852241 
3467.256661  	66.972539 
3468.693568  	67.228508 
3470.130475  	67.411215 
3471.567382  	67.570918 
3473.004289  	67.849781 
3474.441196  	67.977973 
3475.878103  	68.118343 
3477.315010  	68.360632 
3478.751917  	68.494237 
3480.188824  	68.675174 
3481.625731  	68.886525 
3483.062638  	69.079130 
3484.499545  	69.324014 
3485.936452  	69.474230 
3487.373359  	69.621041 
3488.810266  	69.821814 
3490.247173  	70.003230 
3491.684080  	70.216170 
3493.120987  	70.338657 
3494.557894  	70.500142 
3495.994801  	70.805181 
3497.431708  	70.969379 
3498.868615  	71.120228 
3500.305522  	71.324544 
3501.742429  	71.444666 
3503.179336  	71.646629 
3504.616243  	71.792017 
3506.053150  	71.874504 
3507.490058  	72.127574 
3508.926965  	72.340357 
3510.363872  	72.510075 
3511.800779  	72.714578 
3513.237686  	72.824417 
3514.674593  	72.981142 
3516.111500  	73.196706 
3517.548407  	73.451847 
3518.985314  	73.747509 
3520.422221  	73.874216 
3521.859128  	74.032270 
3523.296035  	74.297256 
3524.732942  	74.383391 
3526.169849  	74.542605 
3527.606756  	74.819323 
3529.043663  	74.959025 
3530.480570  	75.085267 
3531.917477  	75.236267 
3533.354384  	75.435279 
3534.791291  	75.675871 
3536.228198  	75.832981 
3537.665105  	76.029613 
3539.102012  	76.274824 
3540.538919  	76.488436 
3541.975826  	76.701722 
3543.412733  	76.862135 
3544.849640  	77.028178 
3546.286547  	77.236302 
3547.723454  	77.375427 
3549.160361  	77.521899 
3550.597268  	77.670973 
3552.034175  	77.810325 
3553.471082  	78.054734 
3554.907989  	78.268632 
3556.344896  	78.439301 
3557.781804  	78.662282 
3559.218711  	78.845919 
3560.655618  	79.102046 
3562.092525  	79.367356 
3563.529432  	79.507341 
3564.966339  	79.696761 
3566.403246  	79.844848 
3567.840153  	79.840721 
3569.277060  	79.923751 
3570.713967  	80.060928 
3572.150874  	80.242591 
3573.587781  	80.500809 
3575.024688  	80.752726 
3576.461595  	80.954135 
3577.898502  	81.063739 
3579.335409  	81.245497 
3580.772316  	81.549266 
3582.209223  	81.767005 
3583.646130  	81.965166 
3585.083037  	82.125291 
3586.519944  	82.120131 
3587.956851  	82.139243 
3589.393758  	82.342422 
3590.830665  	82.608196 
3592.267572  	82.806321 
3593.704479  	82.894659 
3595.141386  	83.035834 
3596.578293  	83.202766 
3598.015200  	83.352990 
3599.452107  	83.625740 
3600.889014  	83.875811 
3602.325921  	84.046094 
3603.762828  	84.219520 
3605.199735  	84.348411 
3606.636642  	84.532153 
3608.073550  	84.763241 
3609.510457  	84.952379 
3610.947364  	85.138613 
3612.384271  	85.161341 
3613.821178  	85.147207 
3615.258085  	85.391113 
3616.694992  	85.577728 
3618.131899  	85.687916 
3619.568806  	85.913506 
3621.005713  	86.165966 
3622.442620  	86.389924 
3623.879527  	86.524058 
3625.316434  	86.629922 
3626.753341  	86.824179 
3628.190248  	87.027626 
3629.627155  	87.180340 
3631.064062  	87.089841 
3632.500969  	87.172766 
3633.937876  	87.387481 
3635.374783  	87.604441 
3636.811690  	87.885686 
3638.248597  	88.212525 
3639.685504  	88.376052 
3641.122411  	88.604049 
3642.559318  	88.971005 
3643.996225  	89.251516 
3645.433132  	89.537157 
3646.870039  	89.699989 
3648.306946  	89.632639 
3649.743853  	89.946233 
3651.180760  	90.247900 
3652.617667  	90.164979 
3654.054574  	90.286588 
3655.491481  	90.413408 
3656.928389  	90.531122 
3658.365296  	90.772158 
3659.802203  	91.079374 
3661.239110  	91.411108 
3662.676017  	91.718737 
3664.112924  	92.070983 
3665.549831  	92.313028 
3666.986738  	92.452043 
3668.423645  	92.640730 
3669.860552  	92.860536 
3671.297459  	92.970022 
3672.734366  	93.132002 
3674.171273  	93.307515 
3675.608180  	93.324008 
3677.045087  	93.288417 
3678.481994  	93.509367 
3679.918901  	93.716209 
3681.355808  	93.890084 
3682.792715  	94.169380 
3684.229622  	94.441236 
3685.666529  	94.584940 
3687.103436  	94.661696 
3688.540343  	94.706078 
3689.977250  	94.706098 
3691.414157  	94.850402 
3692.851064  	94.921938 
3694.287971  	94.938157 
3695.724878  	95.079765 
3697.161785  	95.209219 
3698.598692  	95.281428 
3700.035599  	95.363005 
3701.472506  	95.439534 
3702.909413  	95.525653 
3704.346320  	95.638097 
3705.783227  	95.740168 
3707.220135  	95.888959 
3708.657042  	95.968315 
3710.093949  	95.949935 
3711.530856  	95.921084 
3712.967763  	95.860938 
3714.404670  	95.890679 
3715.841577  	95.987638 
3717.278484  	96.060393 
3718.715391  	96.130725 
3720.152298  	96.205529 
3721.589205  	96.332285 
3723.026112  	96.440488 
3724.463019  	96.425167 
3725.899926  	96.481297 
3727.336833  	96.488091 
3728.773740  	96.475839 
3730.210647  	96.673448 
3731.647554  	96.831563 
3733.084461  	96.855437 
3734.521368  	96.821472 
3735.958275  	96.642661 
3737.395182  	96.457490 
3738.832089  	96.577300 
3740.268996  	96.682539 
3741.705903  	96.717309 
3743.142810  	96.755279 
3744.579717  	96.812440 
3746.016624  	96.792054 
3747.453531  	96.762400 
3748.890438  	96.725102 
3750.327345  	96.652361 
3751.764252  	96.672965 
3753.201159  	96.675425 
3754.638066  	96.624558 
3756.074973  	96.662572 
3757.511881  	96.704303 
3758.948788  	96.708578 
3760.385695  	96.715740 
3761.822602  	96.645853 
3763.259509  	96.578887 
3764.696416  	96.643667 
3766.133323  	96.764784 
3767.570230  	96.828394 
3769.007137  	96.862708 
3770.444044  	96.805245 
3771.880951  	96.746786 
3773.317858  	96.789343 
3774.754765  	96.808773 
3776.191672  	96.860967 
3777.628579  	96.931449 
3779.065486  	96.922179 
3780.502393  	96.824570 
3781.939300  	96.801747 
3783.376207  	96.848674 
3784.813114  	96.855772 
3786.250021  	96.859700 
3787.686928  	96.932218 
3789.123835  	96.953975 
3790.560742  	96.925221 
3791.997649  	96.922789 
3793.434556  	96.926269 
3794.871463  	97.037390 
3796.308370  	97.206661 
3797.745277  	97.068524 
3799.182184  	96.896076 
3800.619091  	96.927548 
3802.055998  	96.985780 
3803.492905  	96.961507 
3804.929812  	96.924882 
3806.366720  	96.759187 
3807.803627  	96.541348 
3809.240534  	96.633061 
3810.677441  	96.834633 
3812.114348  	96.901297 
3813.551255  	96.939174 
3814.988162  	97.101244 
3816.425069  	97.200525 
3817.861976  	96.971567 
3819.298883  	96.844974 
3820.735790  	96.621488 
3822.172697  	96.428283 
3823.609604  	96.723569 
3825.046511  	96.912187 
3826.483418  	96.871485 
3827.920325  	96.805688 
3829.357232  	96.846560 
3830.794139  	96.877120 
3832.231046  	96.910336 
3833.667953  	97.088635 
3835.104860  	97.236884 
3836.541767  	97.155934 
3837.978674  	96.998251 
3839.415581  	96.959148 
3840.852488  	96.999287 
3842.289395  	96.968759 
3843.726302  	96.768384 
3845.163209  	96.656650 
3846.600116  	96.834968 
3848.037023  	97.013468 
3849.473930  	97.049102 
3850.910837  	97.098144 
3852.347744  	97.181123 
3853.784651  	97.136593 
3855.221558  	96.848018 
3856.658466  	96.897811 
3858.095373  	96.971610 
3859.532280  	96.991660 
3860.969187  	97.046407 
3862.406094  	97.127099 
3863.843001  	97.123462 
3865.279908  	97.044701 
3866.716815  	96.952139 
3868.153722  	97.011982 
3869.590629  	97.062883 
3871.027536  	96.961097 
3872.464443  	96.991021 
3873.901350  	97.080292 
3875.338257  	97.033391 
3876.775164  	97.013340 
3878.212071  	97.070917 
3879.648978  	97.080598 
3881.085885  	97.024111 
3882.522792  	96.921801 
3883.959699  	96.943752 
3885.396606  	97.037044 
3886.833513  	97.045290 
3888.270420  	97.006429 
3889.707327  	97.024020 
3891.144234  	97.010033 
3892.581141  	96.947002 
3894.018048  	96.977093 
3895.454955  	97.090579 
3896.891862  	97.163023 
3898.328769  	97.135683 
3899.765676  	97.111730 
3901.202583  	97.107835 
3902.639490  	97.030369 
3904.076397  	96.916422 
3905.513305  	96.901726 
3906.950212  	96.968521 
3908.387119  	96.964776 
3909.824026  	96.922079 
3911.260933  	97.004685 
3912.697840  	97.068364 
3914.134747  	97.152995 
3915.571654  	97.154446 
3917.008561  	97.122253 
3918.445468  	97.115146 
3919.882375  	97.106657 
3921.319282  	97.042159 
3922.756189  	97.072207 
3924.193096  	97.154681 
3925.630003  	97.130947 
3927.066910  	97.075807 
3928.503817  	97.026798 
3929.940724  	96.981735 
3931.377631  	97.019729 
3932.814538  	97.047915 
3934.251445  	97.044510 
3935.688352  	97.081128 
3937.125259  	97.115341 
3938.562166  	97.072353 
3939.999073  	97.022693 
3941.435980  	97.083480 
3942.872887  	97.121487 
3944.309794  	96.976850 
3945.746701  	96.926956 
3947.183608  	96.999444 
3948.620515  	97.030240 
3950.057422  	97.062034 
3951.494329  	97.030793 
3952.931236  	96.948857 
3954.368143  	96.956885 
3955.805051  	96.973144 
3957.241958  	97.017542 
3958.678865  	97.098656 
3960.115772  	97.066926 
3961.552679  	97.012048 
3962.989586  	97.050117 
3964.426493  	97.058548 
3965.863400  	97.019981 
3967.300307  	96.981872 
3968.737214  	96.954289 
3970.174121  	96.939296 
3971.611028  	96.922069 
3973.047935  	96.931827 
3974.484842  	96.942988 
3975.921749  	96.923806 
3977.358656  	96.922874 
3978.795563  	96.934954 
3980.232470  	96.954561 
3981.669377  	96.961794 
3983.106284  	96.931335 
3984.543191  	96.945800 
3985.980098  	96.978444 
3987.417005  	96.963090 
3988.853912  	96.971821 
3990.290819  	96.959699 
3991.727726  	96.892140 
3993.164633  	96.911671 
3994.601540  	96.994797 
3996.038447  	96.996588 
3997.475354  	96.937819 
3998.912261  	96.915058 
4000.349168  	96.908054 