##TITLE=No Description
##DATA TYPE=INFRARED SPECTRUM
##XUNITS=1/CM
##YUNITS=%T
399.460154  	29.308177 
400.897061  	29.602519 
402.333968  	31.096573 
403.770875  	30.671295 
405.207782  	30.029940 
406.644689  	29.455431 
408.081596  	28.669542 
409.518503  	29.646120 
410.955410  	29.670466 
412.392317  	28.910954 
413.829224  	30.214506 
415.266131  	30.676299 
416.703038  	29.909037 
418.139945  	29.025165 
419.576852  	28.503521 
421.013759  	29.459382 
422.450666  	29.475522 
423.887574  	29.227918 
425.324481  	29.542574 
426.761388  	29.135161 
428.198295  	29.877461 
429.635202  	30.731820 
431.072109  	29.893864 
432.509016  	30.091254 
433.945923  	30.613392 
435.382830  	30.232424 
436.819737  	30.170277 
438.256644  	29.733103 
439.693551  	29.779864 
441.130458  	30.579039 
442.567365  	30.407899 
444.004272  	30.683327 
445.441179  	30.989186 
446.878086  	30.597566 
448.314993  	30.701236 
449.751900  	30.393583 
451.188807  	30.089081 
452.625714  	30.761383 
454.062621  	30.963352 
455.499528  	30.979639 
456.936435  	30.734386 
458.373342  	30.410848 
459.810249  	30.775668 
461.247156  	30.568991 
462.684063  	30.498941 
464.120970  	30.952996 
465.557877  	30.697366 
466.994784  	30.759856 
468.431691  	30.984239 
469.868598  	30.599999 
471.305505  	30.851285 
472.742413  	30.965690 
474.179320  	30.592562 
475.616227  	30.761900 
477.053134  	30.731092 
478.490041  	30.590390 
479.926948  	30.643252 
481.363855  	30.568960 
482.800762  	30.746845 
484.237669  	30.814837 
485.674576  	30.862782 
487.111483  	31.231948 
488.548390  	31.337865 
489.985297  	31.228365 
491.422204  	31.168231 
492.859111  	31.196415 
494.296018  	31.313055 
495.732925  	31.205540 
497.169832  	31.403530 
498.606739  	31.853273 
500.043646  	31.683372 
501.480553  	31.353869 
502.917460  	31.259410 
504.354367  	31.314329 
505.791274  	31.666220 
507.228181  	31.894833 
508.665088  	31.980926 
510.101995  	32.062308 
511.538902  	31.765357 
512.975809  	31.579567 
514.412716  	31.698050 
515.849623  	31.845538 
517.286530  	32.120559 
518.723437  	32.092199 
520.160344  	31.933992 
521.597251  	32.016284 
523.034159  	32.062079 
524.471066  	32.240285 
525.907973  	32.449612 
527.344880  	32.411101 
528.781787  	32.438651 
530.218694  	32.378196 
531.655601  	32.398300 
533.092508  	32.646760 
534.529415  	32.621466 
535.966322  	32.629164 
537.403229  	32.900773 
538.840136  	33.005660 
540.277043  	33.071019 
541.713950  	33.154531 
543.150857  	33.216556 
544.587764  	33.313880 
546.024671  	33.317275 
547.461578  	33.409051 
548.898485  	33.494114 
550.335392  	33.464400 
551.772299  	33.674445 
553.209206  	33.887551 
554.646113  	33.930946 
556.083020  	34.006040 
557.519927  	33.969437 
558.956834  	34.021090 
560.393741  	34.227496 
561.830648  	34.247153 
563.267555  	34.267256 
564.704462  	34.379690 
566.141369  	34.500326 
567.578276  	34.686681 
569.015183  	34.753567 
570.452090  	34.771542 
571.888997  	34.857644 
573.325905  	34.878690 
574.762812  	34.957838 
576.199719  	35.142333 
577.636626  	35.329788 
579.073533  	35.503662 
580.510440  	35.588600 
581.947347  	35.628543 
583.384254  	35.630207 
584.821161  	35.630045 
586.258068  	35.843295 
587.694975  	36.085661 
589.131882  	36.191757 
590.568789  	36.317034 
592.005696  	36.418688 
593.442603  	36.498649 
594.879510  	36.581996 
596.316417  	36.661535 
597.753324  	36.858317 
599.190231  	37.009311 
600.627138  	37.035324 
602.064045  	37.151159 
603.500952  	37.280141 
604.937859  	37.407380 
606.374766  	37.568687 
607.811673  	37.702663 
609.248580  	37.837795 
610.685487  	37.960173 
612.122394  	38.068444 
613.559301  	38.266559 
614.996208  	38.394426 
616.433115  	38.456549 
617.870022  	38.563939 
619.306929  	38.695965 
620.743836  	38.874834 
622.180744  	39.013221 
623.617651  	39.124843 
625.054558  	39.319805 
626.491465  	39.459368 
627.928372  	39.572142 
629.365279  	39.739355 
630.802186  	39.858807 
632.239093  	39.981877 
633.676000  	40.085201 
635.112907  	40.179833 
636.549814  	40.390535 
637.986721  	40.550069 
639.423628  	40.661010 
640.860535  	40.841165 
642.297442  	40.972834 
643.734349  	41.155799 
645.171256  	41.370671 
646.608163  	41.478888 
648.045070  	41.612493 
649.481977  	41.759768 
650.918884  	41.888767 
652.355791  	42.045032 
653.792698  	42.188033 
655.229605  	42.361247 
656.666512  	42.529802 
658.103419  	42.626717 
659.540326  	42.822892 
660.977233  	43.075225 
662.414140  	43.268139 
663.851047  	43.454147 
665.287954  	43.515939 
666.724861  	43.630427 
668.161768  	43.904367 
669.598675  	44.174078 
671.035582  	44.309055 
672.472490  	44.485310 
673.909397  	44.633522 
675.346304  	44.803645 
676.783211  	45.013273 
678.220118  	45.143463 
679.657025  	45.284711 
681.093932  	45.484825 
682.530839  	45.707810 
683.967746  	45.947304 
685.404653  	46.138565 
686.841560  	46.286985 
688.278467  	46.468261 
689.715374  	46.659258 
691.152281  	46.844564 
692.589188  	47.044169 
694.026095  	47.263737 
695.463002  	47.486168 
696.899909  	47.692270 
698.336816  	47.890084 
699.773723  	48.097114 
701.210630  	48.289265 
702.647537  	48.494198 
704.084444  	48.741045 
705.521351  	48.950314 
706.958258  	49.128001 
708.395165  	49.326877 
709.832072  	49.525459 
711.268979  	49.716894 
712.705886  	49.911774 
714.142793  	50.102599 
715.579700  	50.327491 
717.016607  	50.556171 
718.453514  	50.740980 
719.890421  	50.946689 
721.327328  	51.186467 
722.764236  	51.416464 
724.201143  	51.638614 
725.638050  	51.834590 
727.074957  	52.016937 
728.511864  	52.211244 
729.948771  	52.420777 
731.385678  	52.675288 
732.822585  	52.911233 
734.259492  	53.083820 
735.696399  	53.289037 
737.133306  	53.525371 
738.570213  	53.752730 
740.007120  	53.985176 
741.444027  	54.201972 
742.880934  	54.459461 
744.317841  	54.733043 
745.754748  	54.935504 
747.191655  	55.188636 
748.628562  	55.477705 
750.065469  	55.657824 
751.502376  	55.837556 
752.939283  	56.067085 
754.376190  	56.249398 
755.813097  	56.437165 
757.250004  	56.706362 
758.686911  	56.996977 
760.123818  	57.215546 
761.560725  	57.416839 
762.997632  	57.691975 
764.434539  	57.963505 
765.871446  	58.205300 
767.308353  	58.443476 
768.745260  	58.629869 
770.182167  	58.846987 
771.619075  	59.119462 
773.055982  	59.348441 
774.492889  	59.592295 
775.929796  	59.843588 
777.366703  	60.061820 
778.803610  	60.328980 
780.240517  	60.559196 
781.677424  	60.729149 
783.114331  	60.986990 
784.551238  	61.270037 
785.988145  	61.541426 
787.425052  	61.853511 
788.861959  	62.102599 
790.298866  	62.299571 
791.735773  	62.518975 
793.172680  	62.721650 
794.609587  	62.972738 
796.046494  	63.270239 
797.483401  	63.487106 
798.920308  	63.688636 
800.357215  	63.956243 
801.794122  	64.230741 
803.231029  	64.504896 
804.667936  	64.775463 
806.104843  	65.023620 
807.541750  	65.296337 
808.978657  	65.572474 
810.415564  	65.799191 
811.852471  	66.021866 
813.289378  	66.263971 
814.726285  	66.505672 
816.163192  	66.759893 
817.600099  	67.030520 
819.037006  	67.312963 
820.473913  	67.589991 
821.910821  	67.832751 
823.347728  	68.073205 
824.784635  	68.342602 
826.221542  	68.601890 
827.658449  	68.830956 
829.095356  	69.066339 
830.532263  	69.317537 
831.969170  	69.562178 
833.406077  	69.813815 
834.842984  	70.062879 
836.279891  	70.284278 
837.716798  	70.545688 
839.153705  	70.849782 
840.590612  	71.096071 
842.027519  	71.326241 
843.464426  	71.618137 
844.901333  	71.910235 
846.338240  	72.136282 
847.775147  	72.321592 
849.212054  	72.563375 
850.648961  	72.881138 
852.085868  	73.155821 
853.522775  	73.365676 
854.959682  	73.619464 
856.396589  	73.927126 
857.833496  	74.183950 
859.270403  	74.384456 
860.707310  	74.637515 
862.144217  	74.903843 
863.581124  	75.098364 
865.018031  	75.308628 
866.454938  	75.565906 
867.891845  	75.822661 
869.328752  	76.067907 
870.765660  	76.267946 
872.202567  	76.485444 
873.639474  	76.743655 
875.076381  	76.945245 
876.513288  	77.155951 
877.950195  	77.408446 
879.387102  	77.610332 
880.824009  	77.808860 
882.260916  	78.038711 
883.697823  	78.281523 
885.134730  	78.528849 
886.571637  	78.737687 
888.008544  	78.959997 
889.445451  	79.191372 
890.882358  	79.364446 
892.319265  	79.555039 
893.756172  	79.750772 
895.193079  	79.916884 
896.629986  	80.130998 
898.066893  	80.344854 
899.503800  	80.518156 
900.940707  	80.696141 
902.377614  	80.888165 
903.814521  	81.102607 
905.251428  	81.268850 
906.688335  	81.389025 
908.125242  	81.560985 
909.562149  	81.731355 
910.999056  	81.895883 
912.435963  	82.096332 
913.872870  	82.267037 
915.309777  	82.436474 
916.746684  	82.625214 
918.183591  	82.810809 
919.620498  	83.003158 
921.057406  	83.134392 
922.494313  	83.261038 
923.931220  	83.452496 
925.368127  	83.594804 
926.805034  	83.720712 
928.241941  	83.890233 
929.678848  	84.041311 
931.115755  	84.178736 
932.552662  	84.279319 
933.989569  	84.385138 
935.426476  	84.558055 
936.863383  	84.686609 
938.300290  	84.773115 
939.737197  	84.883210 
941.174104  	84.989370 
942.611011  	85.119408 
944.047918  	85.237791 
945.484825  	85.338726 
946.921732  	85.491081 
948.358639  	85.616841 
949.795546  	85.699821 
951.232453  	85.792232 
952.669360  	85.874582 
954.106267  	85.989127 
955.543174  	86.105887 
956.980081  	86.178641 
958.416988  	86.275165 
959.853895  	86.381198 
961.290802  	86.483548 
962.727709  	86.586007 
964.164616  	86.649397 
965.601523  	86.729010 
967.038430  	86.830709 
968.475337  	86.919055 
969.912244  	87.012984 
971.349152  	87.072850 
972.786059  	87.146526 
974.222966  	87.260928 
975.659873  	87.306986 
977.096780  	87.340570 
978.533687  	87.415232 
979.970594  	87.466203 
981.407501  	87.527142 
982.844408  	87.592736 
984.281315  	87.645801 
985.718222  	87.723296 
987.155129  	87.787334 
988.592036  	87.841110 
990.028943  	87.893231 
991.465850  	87.921188 
992.902757  	87.971849 
994.339664  	88.029377 
995.776571  	88.065133 
997.213478  	88.097650 
998.650385  	88.109500 
1000.087292  	88.144025 
1001.524199  	88.190724 
1002.961106  	88.187511 
1004.398013  	88.225397 
1005.834920  	88.313203 
1007.271827  	88.350806 
1008.708734  	88.379424 
1010.145641  	88.432748 
1011.582548  	88.463765 
1013.019455  	88.471694 
1014.456362  	88.499340 
1015.893269  	88.556949 
1017.330176  	88.603721 
1018.767083  	88.650346 
1020.203991  	88.696117 
1021.640898  	88.700237 
1023.077805  	88.739262 
1024.514712  	88.808988 
1025.951619  	88.792680 
1027.388526  	88.771438 
1028.825433  	88.812830 
1030.262340  	88.810720 
1031.699247  	88.762579 
1033.136154  	88.737063 
1034.573061  	88.723601 
1036.009968  	88.721267 
1037.446875  	88.759081 
1038.883782  	88.802100 
1040.320689  	88.812742 
1041.757596  	88.847094 
1043.194503  	88.904487 
1044.631410  	88.931200 
1046.068317  	88.978869 
1047.505224  	89.041792 
1048.942131  	89.062748 
1050.379038  	89.089956 
1051.815945  	89.140567 
1053.252852  	89.199332 
1054.689759  	89.250840 
1056.126666  	89.266858 
1057.563573  	89.299483 
1059.000480  	89.346237 
1060.437387  	89.381044 
1061.874294  	89.445070 
1063.311201  	89.458942 
1064.748108  	89.422533 
1066.185015  	89.461532 
1067.621922  	89.514562 
1069.058829  	89.526928 
1070.495737  	89.538603 
1071.932644  	89.544365 
1073.369551  	89.565106 
1074.806458  	89.588690 
1076.243365  	89.616596 
1077.680272  	89.649346 
1079.117179  	89.613501 
1080.554086  	89.591286 
1081.990993  	89.622521 
1083.427900  	89.597393 
1084.864807  	89.594267 
1086.301714  	89.631388 
1087.738621  	89.609183 
1089.175528  	89.597006 
1090.612435  	89.609293 
1092.049342  	89.617867 
1093.486249  	89.645296 
1094.923156  	89.635599 
1096.360063  	89.620266 
1097.796970  	89.655073 
1099.233877  	89.692078 
1100.670784  	89.714244 
1102.107691  	89.706973 
1103.544598  	89.708664 
1104.981505  	89.751340 
1106.418412  	89.760952 
1107.855319  	89.773613 
1109.292226  	89.818489 
1110.729133  	89.820514 
1112.166040  	89.814437 
1113.602947  	89.819763 
1115.039854  	89.830108 
1116.476761  	89.882584 
1117.913668  	89.910021 
1119.350575  	89.891846 
1120.787483  	89.904134 
1122.224390  	89.946574 
1123.661297  	89.982694 
1125.098204  	89.988324 
1126.535111  	89.985168 
1127.972018  	89.986197 
1129.408925  	89.966459 
1130.845832  	89.973736 
1132.282739  	89.996055 
1133.719646  	89.985610 
1135.156553  	89.991315 
1136.593460  	89.984873 
1138.030367  	89.967289 
1139.467274  	89.998023 
1140.904181  	90.007065 
1142.341088  	90.006361 
1143.777995  	90.028372 
1145.214902  	89.999200 
1146.651809  	89.975969 
1148.088716  	89.986685 
1149.525623  	89.974558 
1150.962530  	89.970112 
1152.399437  	89.958630 
1153.836344  	89.954420 
1155.273251  	89.984423 
1156.710158  	89.967003 
1158.147065  	89.940048 
1159.583972  	89.957104 
1161.020879  	89.961113 
1162.457786  	89.967992 
1163.894693  	89.968645 
1165.331600  	89.944730 
1166.768507  	89.939340 
1168.205414  	89.932077 
1169.642322  	89.933592 
1171.079229  	89.952420 
1172.516136  	89.934028 
1173.953043  	89.916105 
1175.389950  	89.922592 
1176.826857  	89.919893 
1178.263764  	89.919736 
1179.700671  	89.914579 
1181.137578  	89.909721 
1182.574485  	89.909238 
1184.011392  	89.885768 
1185.448299  	89.869532 
1186.885206  	89.874815 
1188.322113  	89.879927 
1189.759020  	89.879396 
1191.195927  	89.872888 
1192.632834  	89.895384 
1194.069741  	89.914202 
1195.506648  	89.883885 
1196.943555  	89.880883 
1198.380462  	89.887567 
1199.817369  	89.847080 
1201.254276  	89.835292 
1202.691183  	89.850708 
1204.128090  	89.842028 
1205.564997  	89.831059 
1207.001904  	89.830527 
1208.438811  	89.851320 
1209.875718  	89.865517 
1211.312625  	89.844880 
1212.749532  	89.835195 
1214.186439  	89.839205 
1215.623346  	89.836641 
1217.060253  	89.831886 
1218.497160  	89.825414 
1219.934068  	89.847604 
1221.370975  	89.871180 
1222.807882  	89.844501 
1224.244789  	89.813972 
1225.681696  	89.817069 
1227.118603  	89.836910 
1228.555510  	89.836393 
1229.992417  	89.806863 
1231.429324  	89.803954 
1232.866231  	89.813144 
1234.303138  	89.802475 
1235.740045  	89.813078 
1237.176952  	89.821185 
1238.613859  	89.808139 
1240.050766  	89.804036 
1241.487673  	89.793022 
1242.924580  	89.778650 
1244.361487  	89.758323 
1245.798394  	89.739147 
1247.235301  	89.761905 
1248.672208  	89.767051 
1250.109115  	89.726054 
1251.546022  	89.707596 
1252.982929  	89.702933 
1254.419836  	89.689117 
1255.856743  	89.674418 
1257.293650  	89.665151 
1258.730557  	89.674406 
1260.167464  	89.678979 
1261.604371  	89.692697 
1263.041278  	89.719554 
1264.478185  	89.700336 
1265.915092  	89.676333 
1267.351999  	89.674891 
1268.788907  	89.652850 
1270.225814  	89.640888 
1271.662721  	89.628031 
1273.099628  	89.606180 
1274.536535  	89.618779 
1275.973442  	89.626106 
1277.410349  	89.622584 
1278.847256  	89.615731 
1280.284163  	89.583504 
1281.721070  	89.591110 
1283.157977  	89.629311 
1284.594884  	89.641533 
1286.031791  	89.653650 
1287.468698  	89.645486 
1288.905605  	89.633927 
1290.342512  	89.653676 
1291.779419  	89.662313 
1293.216326  	89.676035 
1294.653233  	89.683334 
1296.090140  	89.666482 
1297.527047  	89.683614 
1298.963954  	89.706755 
1300.400861  	89.720402 
1301.837768  	89.722421 
1303.274675  	89.735787 
1304.711582  	89.744610 
1306.148489  	89.756782 
1307.585396  	89.739835 
1309.022303  	89.758731 
1310.459210  	89.769532 
1311.896117  	89.763621 
1313.333024  	89.772178 
1314.769931  	89.758241 
1316.206838  	89.762100 
1317.643745  	89.772225 
1319.080653  	89.764036 
1320.517560  	89.752655 
1321.954467  	89.752799 
1323.391374  	89.740708 
1324.828281  	89.751912 
1326.265188  	89.749424 
1327.702095  	89.724336 
1329.139002  	89.740501 
1330.575909  	89.743081 
1332.012816  	89.719322 
1333.449723  	89.705918 
1334.886630  	89.697377 
1336.323537  	89.710838 
1337.760444  	89.686692 
1339.197351  	89.641599 
1340.634258  	89.635177 
1342.071165  	89.651221 
1343.508072  	89.651998 
1344.944979  	89.637795 
1346.381886  	89.612306 
1347.818793  	89.611569 
1349.255700  	89.599667 
1350.692607  	89.562538 
1352.129514  	89.545966 
1353.566421  	89.516320 
1355.003328  	89.500188 
1356.440235  	89.493127 
1357.877142  	89.472398 
1359.314049  	89.460257 
1360.750956  	89.444537 
1362.187863  	89.377874 
1363.624770  	89.341904 
1365.061677  	89.339374 
1366.498584  	89.342831 
1367.935491  	89.319742 
1369.372399  	89.243574 
1370.809306  	89.205038 
1372.246213  	89.205042 
1373.683120  	89.132505 
1375.120027  	89.058180 
1376.556934  	89.005244 
1377.993841  	88.959572 
1379.430748  	88.951618 
1380.867655  	88.933541 
1382.304562  	88.891164 
1383.741469  	88.880507 
1385.178376  	88.879768 
1386.615283  	88.825741 
1388.052190  	88.772315 
1389.489097  	88.779082 
1390.926004  	88.817897 
1392.362911  	88.844193 
1393.799818  	88.845940 
1395.236725  	88.853744 
1396.673632  	88.880057 
1398.110539  	88.922278 
1399.547446  	88.934708 
1400.984353  	88.955454 
1402.421260  	89.006401 
1403.858167  	89.045208 
1405.295074  	89.064778 
1406.731981  	89.085685 
1408.168888  	89.110737 
1409.605795  	89.136827 
1411.042702  	89.153234 
1412.479609  	89.161524 
1413.916516  	89.207727 
1415.353423  	89.242307 
1416.790330  	89.266954 
1418.227238  	89.255045 
1419.664145  	89.233808 
1421.101052  	89.319195 
1422.537959  	89.358753 
1423.974866  	89.332924 
1425.411773  	89.385810 
1426.848680  	89.437536 
1428.285587  	89.443873 
1429.722494  	89.442763 
1431.159401  	89.407371 
1432.596308  	89.417296 
1434.033215  	89.472841 
1435.470122  	89.496107 
1436.907029  	89.470866 
1438.343936  	89.399583 
1439.780843  	89.378404 
1441.217750  	89.424650 
1442.654657  	89.442906 
1444.091564  	89.436614 
1445.528471  	89.432249 
1446.965378  	89.409504 
1448.402285  	89.394849 
1449.839192  	89.375243 
1451.276099  	89.379371 
1452.713006  	89.414434 
1454.149913  	89.410872 
1455.586820  	89.403021 
1457.023727  	89.381100 
1458.460634  	89.301493 
1459.897541  	89.312212 
1461.334448  	89.341716 
1462.771355  	89.343437 
1464.208262  	89.342181 
1465.645169  	89.291717 
1467.082076  	89.260119 
1468.518984  	89.263836 
1469.955891  	89.258879 
1471.392798  	89.236842 
1472.829705  	89.168171 
1474.266612  	89.153827 
1475.703519  	89.167570 
1477.140426  	89.143552 
1478.577333  	89.127867 
1480.014240  	89.104187 
1481.451147  	89.075088 
1482.888054  	89.107108 
1484.324961  	89.103586 
1485.761868  	89.027130 
1487.198775  	88.959031 
1488.635682  	88.912794 
1490.072589  	88.877928 
1491.509496  	88.858547 
1492.946403  	88.836556 
1494.383310  	88.836957 
1495.820217  	88.812353 
1497.257124  	88.715798 
1498.694031  	88.638790 
1500.130938  	88.559282 
1501.567845  	88.548165 
1503.004752  	88.554965 
1504.441659  	88.506586 
1505.878566  	88.478879 
1507.315473  	88.368233 
1508.752380  	88.188878 
1510.189287  	88.183821 
1511.626194  	88.179148 
1513.063101  	88.201712 
1514.500008  	88.196995 
1515.936915  	88.058491 
1517.373822  	87.952494 
1518.810730  	87.998309 
1520.247637  	87.915936 
1521.684544  	87.739469 
1523.121451  	87.705986 
1524.558358  	87.696870 
1525.995265  	87.655075 
1527.432172  	87.542669 
1528.869079  	87.499359 
1530.305986  	87.497111 
1531.742893  	87.390170 
1533.179800  	87.244291 
1534.616707  	87.116811 
1536.053614  	87.046394 
1537.490521  	87.027478 
1538.927428  	86.944602 
1540.364335  	86.760481 
1541.801242  	86.639527 
1543.238149  	86.488185 
1544.675056  	86.368847 
1546.111963  	86.262296 
1547.548870  	86.148127 
1548.985777  	86.040371 
1550.422684  	85.867845 
1551.859591  	85.721520 
1553.296498  	85.603169 
1554.733405  	85.441181 
1556.170312  	85.346507 
1557.607219  	85.286769 
1559.044126  	85.013947 
1560.481033  	84.819912 
1561.917940  	84.674412 
1563.354847  	84.509044 
1564.791754  	84.377428 
1566.228661  	84.243620 
1567.665569  	84.138529 
1569.102476  	83.932055 
1570.539383  	83.640747 
1571.976290  	83.602910 
1573.413197  	83.495781 
1574.850104  	83.340235 
1576.287011  	83.242535 
1577.723918  	82.970880 
1579.160825  	82.725671 
1580.597732  	82.528013 
1582.034639  	82.315131 
1583.471546  	82.158577 
1584.908453  	81.928687 
1586.345360  	81.654052 
1587.782267  	81.517610 
1589.219174  	81.223771 
1590.656081  	80.905188 
1592.092988  	80.645847 
1593.529895  	80.356947 
1594.966802  	80.081706 
1596.403709  	79.756364 
1597.840616  	79.372949 
1599.277523  	79.067270 
1600.714430  	78.663053 
1602.151337  	78.236878 
1603.588244  	77.817697 
1605.025151  	77.332630 
1606.462058  	76.891007 
1607.898965  	76.440101 
1609.335872  	75.929826 
1610.772779  	75.493639 
1612.209686  	74.995335 
1613.646593  	74.502313 
1615.083500  	74.124769 
1616.520407  	73.451349 
1617.957315  	72.917300 
1619.394222  	72.581240 
1620.831129  	72.102883 
1622.268036  	71.755604 
1623.704943  	71.327780 
1625.141850  	70.908633 
1626.578757  	70.663177 
1628.015664  	70.215270 
1629.452571  	69.941232 
1630.889478  	69.856712 
1632.326385  	69.606281 
1633.763292  	69.459869 
1635.200199  	69.338279 
1636.637106  	69.316035 
1638.074013  	69.547599 
1639.510920  	69.520204 
1640.947827  	69.633517 
1642.384734  	69.893599 
1643.821641  	69.941184 
1645.258548  	70.087803 
1646.695455  	70.430242 
1648.132362  	70.837986 
1649.569269  	71.207036 
1651.006176  	71.259900 
1652.443083  	71.332278 
1653.879990  	72.719747 
1655.316897  	72.839728 
1656.753804  	72.990860 
1658.190711  	73.456484 
1659.627618  	73.853706 
1661.064525  	74.292910 
1662.501432  	74.743599 
1663.938339  	75.230586 
1665.375246  	75.725451 
1666.812154  	76.015469 
1668.249061  	76.415028 
1669.685968  	77.207621 
1671.122875  	77.698471 
1672.559782  	78.051280 
1673.996689  	78.421607 
1675.433596  	78.855110 
1676.870503  	79.512580 
1678.307410  	79.822047 
1679.744317  	80.240011 
1681.181224  	80.825460 
1682.618131  	81.187706 
1684.055038  	81.589583 
1685.491945  	82.343040 
1686.928852  	82.638739 
1688.365759  	83.002344 
1689.802666  	83.452808 
1691.239573  	83.893407 
1692.676480  	84.374837 
1694.113387  	84.668892 
1695.550294  	84.953429 
1696.987201  	85.381247 
1698.424108  	85.584086 
1699.861015  	85.853565 
1701.297922  	86.372226 
1702.734829  	86.636134 
1704.171736  	86.934808 
1705.608643  	87.230854 
1707.045550  	87.540730 
1708.482457  	87.875313 
1709.919364  	88.098623 
1711.356271  	88.393380 
1712.793178  	88.751248 
1714.230085  	88.998685 
1715.666992  	89.301208 
1717.103900  	89.577062 
1718.540807  	89.785501 
1719.977714  	90.111070 
1721.414621  	90.305114 
1722.851528  	90.525660 
1724.288435  	90.844918 
1725.725342  	91.057057 
1727.162249  	91.253163 
1728.599156  	91.410207 
1730.036063  	91.549832 
1731.472970  	91.745831 
1732.909877  	91.871887 
1734.346784  	91.908892 
1735.783691  	92.136752 
1737.220598  	92.276743 
1738.657505  	92.397850 
1740.094412  	92.534255 
1741.531319  	92.666669 
1742.968226  	92.791848 
1744.405133  	92.829998 
1745.842040  	92.951318 
1747.278947  	93.146487 
1748.715854  	93.211671 
1750.152761  	93.322452 
1751.589668  	93.473123 
1753.026575  	93.556441 
1754.463482  	93.705877 
1755.900389  	93.766181 
1757.337296  	93.766860 
1758.774203  	93.917795 
1760.211110  	93.988870 
1761.648017  	94.000499 
1763.084924  	94.073933 
1764.521831  	94.143707 
1765.958738  	94.263043 
1767.395646  	94.326267 
1768.832553  	94.361537 
1770.269460  	94.455179 
1771.706367  	94.478008 
1773.143274  	94.487916 
1774.580181  	94.544948 
1776.017088  	94.541645 
1777.453995  	94.610345 
1778.890902  	94.700056 
1780.327809  	94.711056 
1781.764716  	94.745899 
1783.201623  	94.771720 
1784.638530  	94.805953 
1786.075437  	94.881893 
1787.512344  	94.918862 
1788.949251  	94.963447 
1790.386158  	95.003331 
1791.823065  	95.002747 
1793.259972  	95.033592 
1794.696879  	95.035090 
1796.133786  	95.061787 
1797.570693  	95.149343 
1799.007600  	95.151091 
1800.444507  	95.158459 
1801.881414  	95.210558 
1803.318321  	95.220665 
1804.755228  	95.290649 
1806.192135  	95.325407 
1807.629042  	95.324058 
1809.065949  	95.391109 
1810.502856  	95.387187 
1811.939763  	95.347783 
1813.376670  	95.385921 
1814.813577  	95.442685 
1816.250485  	95.521270 
1817.687392  	95.534243 
1819.124299  	95.471064 
1820.561206  	95.458869 
1821.998113  	95.469772 
1823.435020  	95.491021 
1824.871927  	95.485338 
1826.308834  	95.463245 
1827.745741  	95.553398 
1829.182648  	95.582565 
1830.619555  	95.512044 
1832.056462  	95.569770 
1833.493369  	95.599897 
1834.930276  	95.624046 
1836.367183  	95.655781 
1837.804090  	95.638075 
1839.240997  	95.697078 
1840.677904  	95.761083 
1842.114811  	95.754865 
1843.551718  	95.767240 
1844.988625  	95.638351 
1846.425532  	95.621226 
1847.862439  	95.717068 
1849.299346  	95.668759 
1850.736253  	95.714626 
1852.173160  	95.799327 
1853.610067  	95.754655 
1855.046974  	95.768686 
1856.483881  	95.755477 
1857.920788  	95.740398 
1859.357695  	95.823171 
1860.794602  	95.790651 
1862.231509  	95.812168 
1863.668416  	95.904201 
1865.105323  	95.888325 
1866.542231  	95.903804 
1867.979138  	95.822942 
1869.416045  	95.704061 
1870.852952  	95.797328 
1872.289859  	95.795563 
1873.726766  	95.795659 
1875.163673  	95.872385 
1876.600580  	95.866838 
1878.037487  	95.900718 
1879.474394  	95.885281 
1880.911301  	95.854876 
1882.348208  	95.917115 
1883.785115  	95.893518 
1885.222022  	95.969435 
1886.658929  	96.086836 
1888.095836  	96.024415 
1889.532743  	95.974295 
1890.969650  	95.906131 
1892.406557  	95.840515 
1893.843464  	95.888736 
1895.280371  	95.860340 
1896.717278  	95.893185 
1898.154185  	95.946188 
1899.591092  	95.769521 
1901.027999  	95.779607 
1902.464906  	95.836375 
1903.901813  	95.797445 
1905.338720  	95.828178 
1906.775627  	95.813009 
1908.212534  	95.764685 
1909.649441  	95.794578 
1911.086348  	95.762541 
1912.523255  	95.763943 
1913.960162  	95.843065 
1915.397069  	95.845875 
1916.833977  	95.849024 
1918.270884  	95.716034 
1919.707791  	95.630227 
1921.144698  	95.699164 
1922.581605  	95.631413 
1924.018512  	95.573572 
1925.455419  	95.588663 
1926.892326  	95.554463 
1928.329233  	95.599989 
1929.766140  	95.764517 
1931.203047  	95.662788 
1932.639954  	95.617822 
1934.076861  	95.528466 
1935.513768  	95.519717 
1936.950675  	95.586459 
1938.387582  	95.600612 
1939.824489  	95.715995 
1941.261396  	95.620073 
1942.698303  	95.434838 
1944.135210  	95.597434 
1945.572117  	95.567246 
1947.009024  	95.449897 
1948.445931  	95.570354 
1949.882838  	95.636158 
1951.319745  	95.618804 
1952.756652  	95.496165 
1954.193559  	95.441065 
1955.630466  	95.494551 
1957.067373  	95.339049 
1958.504280  	95.423085 
1959.941187  	95.523661 
1961.378094  	95.246705 
1962.815001  	95.375956 
1964.251908  	95.520922 
1965.688816  	95.517865 
1967.125723  	95.831365 
1968.562630  	95.521567 
1969.999537  	95.108303 
1971.436444  	95.160836 
1972.873351  	95.035302 
1974.310258  	95.111268 
1975.747165  	95.281191 
1977.184072  	95.285836 
1978.620979  	95.341860 
1980.057886  	94.867434 
1981.494793  	94.685903 
1982.931700  	95.078369 
1984.368607  	95.140718 
1985.805514  	95.139934 
1987.242421  	94.957646 
1988.679328  	94.676771 
1990.116235  	94.883616 
1991.553142  	94.758209 
1992.990049  	94.516084 
1994.426956  	94.866861 
1995.863863  	94.957998 
1997.300770  	94.953378 
1998.737677  	95.043442 
2000.174584  	94.961303 
2001.611491  	95.043638 
2003.048398  	94.895675 
2004.485305  	94.717483 
2005.922212  	95.006109 
2007.359119  	94.996428 
2008.796026  	95.007402 
2010.232933  	95.108217 
2011.669840  	94.777513 
2013.106747  	94.792316 
2014.543654  	94.861885 
2015.980562  	94.550777 
2017.417469  	94.434447 
2018.854376  	94.427764 
2020.291283  	94.661205 
2021.728190  	94.779489 
2023.165097  	94.370998 
2024.602004  	94.330856 
2026.038911  	94.401428 
2027.475818  	94.501374 
2028.912725  	95.065521 
2030.349632  	94.857734 
2031.786539  	94.325812 
2033.223446  	94.345714 
2034.660353  	94.221942 
2036.097260  	94.264628 
2037.534167  	94.345556 
2038.971074  	94.171751 
2040.407981  	94.467553 
2041.844888  	94.666896 
2043.281795  	94.598775 
2044.718702  	94.779525 
2046.155609  	94.696787 
2047.592516  	94.547347 
2049.029423  	94.588007 
2050.466330  	94.510166 
2051.903237  	94.503323 
2053.340144  	94.449718 
2054.777051  	94.328770 
2056.213958  	94.391021 
2057.650865  	94.394573 
2059.087772  	94.337373 
2060.524679  	94.366814 
2061.961586  	94.419423 
2063.398493  	94.497228 
2064.835401  	94.483607 
2066.272308  	94.528051 
2067.709215  	94.648852 
2069.146122  	94.519803 
2070.583029  	94.404387 
2072.019936  	94.437605 
2073.456843  	94.372018 
2074.893750  	94.316220 
2076.330657  	94.294114 
2077.767564  	94.277646 
2079.204471  	94.292622 
2080.641378  	94.267030 
2082.078285  	94.288851 
2083.515192  	94.238275 
2084.952099  	94.112055 
2086.389006  	94.194693 
2087.825913  	94.246826 
2089.262820  	94.140580 
2090.699727  	94.117737 
2092.136634  	94.100427 
2093.573541  	94.114894 
2095.010448  	94.126201 
2096.447355  	93.983645 
2097.884262  	93.929984 
2099.321169  	93.957001 
2100.758076  	93.950066 
2102.194983  	94.006769 
2103.631890  	94.002571 
2105.068797  	93.937748 
2106.505704  	93.816583 
2107.942611  	93.667049 
2109.379518  	93.721444 
2110.816425  	93.750985 
2112.253332  	93.667079 
2113.690239  	93.759924 
2115.127147  	93.781701 
2116.564054  	93.706195 
2118.000961  	93.756228 
2119.437868  	93.693107 
2120.874775  	93.590764 
2122.311682  	93.660309 
2123.748589  	93.764034 
2125.185496  	93.856090 
2126.622403  	93.873868 
2128.059310  	93.820579 
2129.496217  	93.740746 
2130.933124  	93.670957 
2132.370031  	93.771447 
2133.806938  	93.785232 
2135.243845  	93.624362 
2136.680752  	93.641256 
2138.117659  	93.589541 
2139.554566  	93.606619 
2140.991473  	93.866382 
2142.428380  	93.732948 
2143.865287  	93.678021 
2145.302194  	94.063783 
2146.739101  	93.997917 
2148.176008  	93.678251 
2149.612915  	93.551380 
2151.049822  	93.376047 
2152.486729  	93.303926 
2153.923636  	93.482701 
2155.360543  	93.853948 
2156.797450  	93.818841 
2158.234357  	93.084677 
2159.671264  	92.914484 
2161.108171  	93.279328 
2162.545078  	93.198837 
2163.981985  	93.214273 
2165.418893  	93.516401 
2166.855800  	93.699476 
2168.292707  	93.548891 
2169.729614  	93.430048 
2171.166521  	93.762452 
2172.603428  	93.976502 
2174.040335  	93.952855 
2175.477242  	94.087029 
2176.914149  	94.033961 
2178.351056  	93.959625 
2179.787963  	93.975668 
2181.224870  	93.826660 
2182.661777  	93.808766 
2184.098684  	93.747320 
2185.535591  	93.690438 
2186.972498  	94.007636 
2188.409405  	94.062664 
2189.846312  	93.912996 
2191.283219  	94.115096 
2192.720126  	94.264923 
2194.157033  	94.225562 
2195.593940  	94.198745 
2197.030847  	94.298442 
2198.467754  	94.445168 
2199.904661  	94.294875 
2201.341568  	94.191102 
2202.778475  	94.300046 
2204.215382  	94.223130 
2205.652289  	94.192466 
2207.089196  	94.223322 
2208.526103  	94.122614 
2209.963010  	94.152036 
2211.399917  	94.179726 
2212.836824  	94.143198 
2214.273732  	94.121648 
2215.710639  	94.018273 
2217.147546  	94.127205 
2218.584453  	94.291897 
2220.021360  	94.193732 
2221.458267  	94.225625 
2222.895174  	94.363934 
2224.332081  	94.451085 
2225.768988  	94.563349 
2227.205895  	94.518820 
2228.642802  	94.516931 
2230.079709  	94.610787 
2231.516616  	94.519765 
2232.953523  	94.449376 
2234.390430  	94.501710 
2235.827337  	94.590677 
2237.264244  	94.690289 
2238.701151  	94.704869 
2240.138058  	94.790238 
2241.574965  	94.879435 
2243.011872  	94.867889 
2244.448779  	94.985046 
2245.885686  	95.016673 
2247.322593  	94.955932 
2248.759500  	95.086763 
2250.196407  	95.104991 
2251.633314  	95.043378 
2253.070221  	95.083367 
2254.507128  	95.042424 
2255.944035  	95.089583 
2257.380942  	95.219332 
2258.817849  	95.196000 
2260.254756  	95.180510 
2261.691663  	95.243428 
2263.128570  	95.334135 
2264.565478  	95.418856 
2266.002385  	95.442934 
2267.439292  	95.497574 
2268.876199  	95.557997 
2270.313106  	95.577574 
2271.750013  	95.552155 
2273.186920  	95.443988 
2274.623827  	95.440699 
2276.060734  	95.535404 
2277.497641  	95.531243 
2278.934548  	95.510763 
2280.371455  	95.501466 
2281.808362  	95.511653 
2283.245269  	95.537350 
2284.682176  	95.461468 
2286.119083  	95.443355 
2287.555990  	95.492134 
2288.992897  	95.432202 
2290.429804  	95.416933 
2291.866711  	95.418429 
2293.303618  	95.348007 
2294.740525  	95.382736 
2296.177432  	95.436925 
2297.614339  	95.418788 
2299.051246  	95.392770 
2300.488153  	95.375847 
2301.925060  	95.356983 
2303.361967  	95.365419 
2304.798874  	95.316692 
2306.235781  	95.301909 
2307.672688  	95.304408 
2309.109595  	95.286461 
2310.546502  	95.285881 
2311.983409  	95.230233 
2313.420317  	95.193046 
2314.857224  	95.208392 
2316.294131  	95.159068 
2317.731038  	95.132302 
2319.167945  	95.122121 
2320.604852  	95.009271 
2322.041759  	94.872103 
2323.478666  	94.776042 
2324.915573  	94.783622 
2326.352480  	94.897656 
2327.789387  	94.970035 
2329.226294  	94.988295 
2330.663201  	95.038077 
2332.100108  	95.110650 
2333.537015  	95.151770 
2334.973922  	95.166580 
2336.410829  	95.267477 
2337.847736  	95.397043 
2339.284643  	95.403166 
2340.721550  	95.376673 
2342.158457  	95.359541 
2343.595364  	95.334356 
2345.032271  	95.344860 
2346.469178  	95.347713 
2347.906085  	95.366159 
2349.342992  	95.413936 
2350.779899  	95.458401 
2352.216806  	95.513572 
2353.653713  	95.577828 
2355.090620  	95.616287 
2356.527527  	95.663640 
2357.964434  	95.668635 
2359.401341  	95.671142 
2360.838248  	95.727390 
2362.275155  	95.761081 
2363.712063  	95.835225 
2365.148970  	95.922126 
2366.585877  	95.962691 
2368.022784  	96.039663 
2369.459691  	96.091198 
2370.896598  	96.106797 
2372.333505  	96.133962 
2373.770412  	96.144805 
2375.207319  	96.157436 
2376.644226  	96.170474 
2378.081133  	96.167172 
2379.518040  	96.188766 
2380.954947  	96.210816 
2382.391854  	96.236629 
2383.828761  	96.300234 
2385.265668  	96.354661 
2386.702575  	96.415594 
2388.139482  	96.443389 
2389.576389  	96.444877 
2391.013296  	96.476047 
2392.450203  	96.480298 
2393.887110  	96.485186 
2395.324017  	96.552903 
2396.760924  	96.588223 
2398.197831  	96.619536 
2399.634738  	96.650960 
2401.071645  	96.605400 
2402.508552  	96.605569 
2403.945459  	96.637556 
2405.382366  	96.600136 
2406.819273  	96.597420 
2408.256180  	96.625807 
2409.693087  	96.633947 
2411.129994  	96.628954 
2412.566901  	96.575634 
2414.003809  	96.542120 
2415.440716  	96.521728 
2416.877623  	96.471472 
2418.314530  	96.503500 
2419.751437  	96.545387 
2421.188344  	96.508829 
2422.625251  	96.516177 
2424.062158  	96.522180 
2425.499065  	96.464448 
2426.935972  	96.446257 
2428.372879  	96.477258 
2429.809786  	96.520831 
2431.246693  	96.558946 
2432.683600  	96.563952 
2434.120507  	96.565080 
2435.557414  	96.577219 
2436.994321  	96.575505 
2438.431228  	96.572735 
2439.868135  	96.585182 
2441.305042  	96.580582 
2442.741949  	96.569200 
2444.178856  	96.604910 
2445.615763  	96.646850 
2447.052670  	96.670128 
2448.489577  	96.679736 
2449.926484  	96.614825 
2451.363391  	96.587940 
2452.800298  	96.676018 
2454.237205  	96.697632 
2455.674112  	96.680806 
2457.111019  	96.719565 
2458.547926  	96.714091 
2459.984833  	96.727499 
2461.421740  	96.786146 
2462.858648  	96.785053 
2464.295555  	96.786324 
2465.732462  	96.791782 
2467.169369  	96.761837 
2468.606276  	96.776344 
2470.043183  	96.819476 
2471.480090  	96.841060 
2472.916997  	96.845039 
2474.353904  	96.844919 
2475.790811  	96.872666 
2477.227718  	96.895415 
2478.664625  	96.895359 
2480.101532  	96.885229 
2481.538439  	96.845465 
2482.975346  	96.826018 
2484.412253  	96.841675 
2485.849160  	96.862730 
2487.286067  	96.893922 
2488.722974  	96.883816 
2490.159881  	96.860868 
2491.596788  	96.876822 
2493.033695  	96.880427 
2494.470602  	96.894341 
2495.907509  	96.892484 
2497.344416  	96.848698 
2498.781323  	96.855442 
2500.218230  	96.848880 
2501.655137  	96.829403 
2503.092044  	96.900947 
2504.528951  	96.934462 
2505.965858  	96.918846 
2507.402765  	96.950901 
2508.839672  	96.943141 
2510.276579  	96.906990 
2511.713486  	96.889295 
2513.150394  	96.887993 
2514.587301  	96.944518 
2516.024208  	96.970499 
2517.461115  	96.932820 
2518.898022  	96.923400 
2520.334929  	96.932139 
2521.771836  	96.950827 
2523.208743  	96.947932 
2524.645650  	96.907566 
2526.082557  	96.930246 
2527.519464  	96.984104 
2528.956371  	96.987943 
2530.393278  	96.976757 
2531.830185  	96.968645 
2533.267092  	96.971702 
2534.703999  	96.962527 
2536.140906  	96.930761 
2537.577813  	96.918314 
2539.014720  	96.915581 
2540.451627  	96.935585 
2541.888534  	96.953284 
2543.325441  	96.928039 
2544.762348  	96.945858 
2546.199255  	96.969478 
2547.636162  	96.958111 
2549.073069  	97.001348 
2550.509976  	97.008573 
2551.946883  	96.976325 
2553.383790  	97.004371 
2554.820697  	96.981538 
2556.257604  	96.944064 
2557.694511  	96.970964 
2559.131418  	96.969657 
2560.568325  	96.995221 
2562.005232  	97.028757 
2563.442140  	96.973446 
2564.879047  	96.954206 
2566.315954  	97.004210 
2567.752861  	97.030971 
2569.189768  	97.022883 
2570.626675  	96.997688 
2572.063582  	96.998371 
2573.500489  	97.013830 
2574.937396  	97.041223 
2576.374303  	97.090445 
2577.811210  	97.060887 
2579.248117  	97.006653 
2580.685024  	97.046810 
2582.121931  	97.087601 
2583.558838  	97.091673 
2584.995745  	97.094447 
2586.432652  	97.088782 
2587.869559  	97.095332 
2589.306466  	97.093380 
2590.743373  	97.115207 
2592.180280  	97.169126 
2593.617187  	97.154510 
2595.054094  	97.155846 
2596.491001  	97.222232 
2597.927908  	97.210178 
2599.364815  	97.171823 
2600.801722  	97.183128 
2602.238629  	97.176946 
2603.675536  	97.187246 
2605.112443  	97.218596 
2606.549350  	97.202496 
2607.986257  	97.181579 
2609.423164  	97.197902 
2610.860071  	97.212294 
2612.296979  	97.224649 
2613.733886  	97.259771 
2615.170793  	97.271002 
2616.607700  	97.250912 
2618.044607  	97.270032 
2619.481514  	97.294270 
2620.918421  	97.289428 
2622.355328  	97.305857 
2623.792235  	97.302513 
2625.229142  	97.274924 
2626.666049  	97.286409 
2628.102956  	97.286958 
2629.539863  	97.263150 
2630.976770  	97.260826 
2632.413677  	97.261989 
2633.850584  	97.265147 
2635.287491  	97.260951 
2636.724398  	97.242288 
2638.161305  	97.244371 
2639.598212  	97.240766 
2641.035119  	97.209381 
2642.472026  	97.190155 
2643.908933  	97.196927 
2645.345840  	97.215307 
2646.782747  	97.212720 
2648.219654  	97.191139 
2649.656561  	97.187627 
2651.093468  	97.178565 
2652.530375  	97.159074 
2653.967282  	97.164937 
2655.404189  	97.174100 
2656.841096  	97.168722 
2658.278003  	97.159158 
2659.714910  	97.147426 
2661.151817  	97.140257 
2662.588725  	97.128697 
2664.025632  	97.121192 
2665.462539  	97.135544 
2666.899446  	97.144742 
2668.336353  	97.143716 
2669.773260  	97.144571 
2671.210167  	97.130779 
2672.647074  	97.109773 
2674.083981  	97.095990 
2675.520888  	97.089454 
2676.957795  	97.091657 
2678.394702  	97.086493 
2679.831609  	97.075217 
2681.268516  	97.078294 
2682.705423  	97.082597 
2684.142330  	97.071510 
2685.579237  	97.056403 
2687.016144  	97.045441 
2688.453051  	97.029522 
2689.889958  	97.016427 
2691.326865  	97.018525 
2692.763772  	97.007053 
2694.200679  	96.980952 
2695.637586  	96.985046 
2697.074493  	97.005043 
2698.511400  	96.999784 
2699.948307  	96.975531 
2701.385214  	96.961609 
2702.822121  	96.977195 
2704.259028  	96.994224 
2705.695935  	96.985587 
2707.132842  	96.975532 
2708.569749  	96.972981 
2710.006656  	96.971753 
2711.443564  	96.965347 
2712.880471  	96.941753 
2714.317378  	96.933364 
2715.754285  	96.950845 
2717.191192  	96.950563 
2718.628099  	96.933919 
2720.065006  	96.919668 
2721.501913  	96.907609 
2722.938820  	96.904389 
2724.375727  	96.900766 
2725.812634  	96.896828 
2727.249541  	96.899011 
2728.686448  	96.886850 
2730.123355  	96.864054 
2731.560262  	96.854257 
2732.997169  	96.854815 
2734.434076  	96.853637 
2735.870983  	96.848784 
2737.307890  	96.843152 
2738.744797  	96.832442 
2740.181704  	96.820719 
2741.618611  	96.812627 
2743.055518  	96.795432 
2744.492425  	96.784999 
2745.929332  	96.784930 
2747.366239  	96.756090 
2748.803146  	96.723081 
2750.240053  	96.728336 
2751.676960  	96.747425 
2753.113867  	96.755511 
2754.550774  	96.734379 
2755.987681  	96.694505 
2757.424588  	96.683484 
2758.861495  	96.682634 
2760.298402  	96.663973 
2761.735310  	96.659199 
2763.172217  	96.659427 
2764.609124  	96.641831 
2766.046031  	96.629893 
2767.482938  	96.620516 
2768.919845  	96.596748 
2770.356752  	96.574381 
2771.793659  	96.546951 
2773.230566  	96.511092 
2774.667473  	96.509552 
2776.104380  	96.519682 
2777.541287  	96.490261 
2778.978194  	96.471138 
2780.415101  	96.467447 
2781.852008  	96.426186 
2783.288915  	96.396802 
2784.725822  	96.390403 
2786.162729  	96.360404 
2787.599636  	96.347034 
2789.036543  	96.347476 
2790.473450  	96.319026 
2791.910357  	96.292220 
2793.347264  	96.277936 
2794.784171  	96.266894 
2796.221078  	96.248132 
2797.657985  	96.204274 
2799.094892  	96.177760 
2800.531799  	96.178140 
2801.968706  	96.162324 
2803.405613  	96.136737 
2804.842520  	96.105079 
2806.279427  	96.074834 
2807.716334  	96.062486 
2809.153241  	96.036772 
2810.590148  	95.999532 
2812.027056  	95.975103 
2813.463963  	95.953592 
2814.900870  	95.934297 
2816.337777  	95.903624 
2817.774684  	95.866686 
2819.211591  	95.854213 
2820.648498  	95.843022 
2822.085405  	95.823022 
2823.522312  	95.810223 
2824.959219  	95.783330 
2826.396126  	95.735628 
2827.833033  	95.683958 
2829.269940  	95.653583 
2830.706847  	95.650124 
2832.143754  	95.636264 
2833.580661  	95.611743 
2835.017568  	95.582805 
2836.454475  	95.524455 
2837.891382  	95.463017 
2839.328289  	95.426390 
2840.765196  	95.411766 
2842.202103  	95.405259 
2843.639010  	95.362710 
2845.075917  	95.303022 
2846.512824  	95.265970 
2847.949731  	95.217579 
2849.386638  	95.162971 
2850.823545  	95.113341 
2852.260452  	95.050142 
2853.697359  	95.017329 
2855.134266  	95.015970 
2856.571173  	94.994893 
2858.008080  	94.955665 
2859.444987  	94.899120 
2860.881895  	94.845301 
2862.318802  	94.820502 
2863.755709  	94.795322 
2865.192616  	94.772400 
2866.629523  	94.761946 
2868.066430  	94.723491 
2869.503337  	94.650496 
2870.940244  	94.574068 
2872.377151  	94.522486 
2873.814058  	94.497725 
2875.250965  	94.462745 
2876.687872  	94.403692 
2878.124779  	94.341921 
2879.561686  	94.291604 
2880.998593  	94.248675 
2882.435500  	94.198501 
2883.872407  	94.143076 
2885.309314  	94.086527 
2886.746221  	94.036561 
2888.183128  	94.011537 
2889.620035  	93.978398 
2891.056942  	93.916105 
2892.493849  	93.867194 
2893.930756  	93.822870 
2895.367663  	93.756666 
2896.804570  	93.689682 
2898.241477  	93.628758 
2899.678384  	93.570305 
2901.115291  	93.502269 
2902.552198  	93.427329 
2903.989105  	93.371580 
2905.426012  	93.299355 
2906.862919  	93.201414 
2908.299826  	93.136140 
2909.736733  	93.081286 
2911.173641  	93.005235 
2912.610548  	92.929694 
2914.047455  	92.845908 
2915.484362  	92.762775 
2916.921269  	92.685398 
2918.358176  	92.594979 
2919.795083  	92.517671 
2921.231990  	92.443998 
2922.668897  	92.357159 
2924.105804  	92.299423 
2925.542711  	92.240245 
2926.979618  	92.140321 
2928.416525  	92.058656 
2929.853432  	92.015491 
2931.290339  	91.959822 
2932.727246  	91.871830 
2934.164153  	91.787297 
2935.601060  	91.717158 
2937.037967  	91.623941 
2938.474874  	91.536469 
2939.911781  	91.487696 
2941.348688  	91.416492 
2942.785595  	91.319017 
2944.222502  	91.242322 
2945.659409  	91.164713 
2947.096316  	91.070765 
2948.533223  	90.979038 
2949.970130  	90.894022 
2951.407037  	90.795591 
2952.843944  	90.680306 
2954.280851  	90.597548 
2955.717758  	90.524164 
2957.154665  	90.393124 
2958.591572  	90.261508 
2960.028479  	90.168616 
2961.465387  	90.079129 
2962.902294  	90.004073 
2964.339201  	89.917611 
2965.776108  	89.788288 
2967.213015  	89.660734 
2968.649922  	89.556158 
2970.086829  	89.462371 
2971.523736  	89.360058 
2972.960643  	89.245967 
2974.397550  	89.141014 
2975.834457  	89.012085 
2977.271364  	88.854068 
2978.708271  	88.729058 
2980.145178  	88.634642 
2981.582085  	88.535311 
2983.018992  	88.406557 
2984.455899  	88.245967 
2985.892806  	88.101128 
2987.329713  	87.975425 
2988.766620  	87.847754 
2990.203527  	87.716624 
2991.640434  	87.563158 
2993.077341  	87.416020 
2994.514248  	87.285933 
2995.951155  	87.143245 
2997.388062  	87.009018 
2998.824969  	86.852957 
3000.261876  	86.673021 
3001.698783  	86.534035 
3003.135690  	86.380425 
3004.572597  	86.204227 
3006.009504  	86.066108 
3007.446411  	85.916921 
3008.883318  	85.762080 
3010.320226  	85.613265 
3011.757133  	85.432799 
3013.194040  	85.270206 
3014.630947  	85.118914 
3016.067854  	84.955829 
3017.504761  	84.808631 
3018.941668  	84.624950 
3020.378575  	84.416503 
3021.815482  	84.219715 
3023.252389  	84.002760 
3024.689296  	83.812749 
3026.126203  	83.645136 
3027.563110  	83.451522 
3029.000017  	83.262625 
3030.436924  	83.065506 
3031.873831  	82.876280 
3033.310738  	82.708927 
3034.747645  	82.520985 
3036.184552  	82.344115 
3037.621459  	82.138622 
3039.058366  	81.885021 
3040.495273  	81.681692 
3041.932180  	81.482729 
3043.369087  	81.262578 
3044.805994  	81.070667 
3046.242901  	80.844022 
3047.679808  	80.603965 
3049.116715  	80.393145 
3050.553622  	80.180115 
3051.990529  	79.973700 
3053.427436  	79.739547 
3054.864343  	79.491836 
3056.301250  	79.261260 
3057.738157  	79.021969 
3059.175064  	78.829709 
3060.611972  	78.613548 
3062.048879  	78.319329 
3063.485786  	78.091244 
3064.922693  	77.862226 
3066.359600  	77.579764 
3067.796507  	77.354592 
3069.233414  	77.109136 
3070.670321  	76.843395 
3072.107228  	76.597058 
3073.544135  	76.310715 
3074.981042  	76.065301 
3076.417949  	75.832561 
3077.854856  	75.548169 
3079.291763  	75.288300 
3080.728670  	75.006650 
3082.165577  	74.732486 
3083.602484  	74.508973 
3085.039391  	74.229425 
3086.476298  	73.935725 
3087.913205  	73.655581 
3089.350112  	73.368945 
3090.787019  	73.098482 
3092.223926  	72.777141 
3093.660833  	72.485088 
3095.097740  	72.246215 
3096.534647  	71.934730 
3097.971554  	71.653863 
3099.408461  	71.380241 
3100.845368  	71.042878 
3102.282275  	70.770944 
3103.719182  	70.478178 
3105.156089  	70.159487 
3106.592996  	69.898752 
3108.029903  	69.570455 
3109.466811  	69.245050 
3110.903718  	68.960877 
3112.340625  	68.635900 
3113.777532  	68.354314 
3115.214439  	68.062065 
3116.651346  	67.774574 
3118.088253  	67.543496 
3119.525160  	67.202521 
3120.962067  	66.841228 
3122.398974  	66.541886 
3123.835881  	66.224233 
3125.272788  	65.954111 
3126.709695  	65.646743 
3128.146602  	65.313582 
3129.583509  	65.047642 
3131.020416  	64.721277 
3132.457323  	64.420576 
3133.894230  	64.144254 
3135.331137  	63.787968 
3136.768044  	63.516538 
3138.204951  	63.222973 
3139.641858  	62.868542 
3141.078765  	62.601164 
3142.515672  	62.257256 
3143.952579  	61.930628 
3145.389486  	61.702233 
3146.826393  	61.386144 
3148.263300  	61.096424 
3149.700207  	60.791615 
3151.137114  	60.440450 
3152.574021  	60.196965 
3154.010928  	59.891932 
3155.447835  	59.592829 
3156.884742  	59.373895 
3158.321649  	59.053747 
3159.758557  	58.800010 
3161.195464  	58.550437 
3162.632371  	58.208294 
3164.069278  	57.983525 
3165.506185  	57.705233 
3166.943092  	57.398232 
3168.379999  	57.178824 
3169.816906  	56.851561 
3171.253813  	56.601421 
3172.690720  	56.395810 
3174.127627  	56.073129 
3175.564534  	55.859648 
3177.001441  	55.599900 
3178.438348  	55.307840 
3179.875255  	55.167072 
3181.312162  	54.904117 
3182.749069  	54.639410 
3184.185976  	54.457472 
3185.622883  	54.190313 
3187.059790  	53.999593 
3188.496697  	53.763791 
3189.933604  	53.489713 
3191.370511  	53.355342 
3192.807418  	53.129700 
3194.244325  	52.919638 
3195.681232  	52.761410 
3197.118139  	52.506741 
3198.555046  	52.380275 
3199.991953  	52.202970 
3201.428860  	51.941310 
3202.865767  	51.836131 
3204.302674  	51.634350 
3205.739581  	51.456484 
3207.176488  	51.362054 
3208.613395  	51.112833 
3210.050303  	51.000057 
3211.487210  	50.901043 
3212.924117  	50.684506 
3214.361024  	50.649514 
3215.797931  	50.507941 
3217.234838  	50.288878 
3218.671745  	50.218524 
3220.108652  	50.053858 
3221.545559  	49.964097 
3222.982466  	49.922636 
3224.419373  	49.750292 
3225.856280  	49.662413 
3227.293187  	49.545251 
3228.730094  	49.450842 
3230.167001  	49.438384 
3231.603908  	49.271165 
3233.040815  	49.205035 
3234.477722  	49.177282 
3235.914629  	49.022439 
3237.351536  	49.039850 
3238.788443  	48.995668 
3240.225350  	48.871250 
3241.662257  	48.896273 
3243.099164  	48.806870 
3244.536071  	48.737882 
3245.972978  	48.724812 
3247.409885  	48.611333 
3248.846792  	48.636511 
3250.283699  	48.624701 
3251.720606  	48.555303 
3253.157513  	48.598307 
3254.594420  	48.501029 
3256.031327  	48.455819 
3257.468234  	48.493387 
3258.905142  	48.391462 
3260.342049  	48.416509 
3261.778956  	48.424602 
3263.215863  	48.363201 
3264.652770  	48.440004 
3266.089677  	48.377879 
3267.526584  	48.308118 
3268.963491  	48.329063 
3270.400398  	48.241698 
3271.837305  	48.281132 
3273.274212  	48.307656 
3274.711119  	48.244296 
3276.148026  	48.318226 
3277.584933  	48.278186 
3279.021840  	48.244082 
3280.458747  	48.297050 
3281.895654  	48.212982 
3283.332561  	48.262732 
3284.769468  	48.306958 
3286.206375  	48.210184 
3287.643282  	48.266734 
3289.080189  	48.248922 
3290.517096  	48.206632 
3291.954003  	48.265696 
3293.390910  	48.174520 
3294.827817  	48.162694 
3296.264724  	48.212538 
3297.701631  	48.210304 
3299.138538  	48.320573 
3300.575445  	48.265627 
3302.012352  	48.165265 
3303.449259  	48.198490 
3304.886166  	48.101895 
3306.323073  	48.119146 
3307.759980  	48.187482 
3309.196888  	48.130398 
3310.633795  	48.237404 
3312.070702  	48.243435 
3313.507609  	48.158542 
3314.944516  	48.224370 
3316.381423  	48.167286 
3317.818330  	48.181383 
3319.255237  	48.267270 
3320.692144  	48.186611 
3322.129051  	48.225871 
3323.565958  	48.242937 
3325.002865  	48.180460 
3326.439772  	48.220527 
3327.876679  	48.163479 
3329.313586  	48.220027 
3330.750493  	48.333843 
3332.187400  	48.235123 
3333.624307  	48.275090 
3335.061214  	48.323278 
3336.498121  	48.271615 
3337.935028  	48.362776 
3339.371935  	48.346345 
3340.808842  	48.340295 
3342.245749  	48.429426 
3343.682656  	48.389226 
3345.119563  	48.458917 
3346.556470  	48.530001 
3347.993377  	48.507287 
3349.430284  	48.576303 
3350.867191  	48.532154 
3352.304098  	48.554805 
3353.741005  	48.685125 
3355.177912  	48.662789 
3356.614819  	48.775647 
3358.051726  	48.856616 
3359.488634  	48.782866 
3360.925541  	48.900965 
3362.362448  	48.954299 
3363.799355  	48.976485 
3365.236262  	49.117494 
3366.673169  	49.109342 
3368.110076  	49.166586 
3369.546983  	49.270918 
3370.983890  	49.320493 
3372.420797  	49.511418 
3373.857704  	49.562335 
3375.294611  	49.573135 
3376.731518  	49.751254 
3378.168425  	49.819462 
3379.605332  	49.938680 
3381.042239  	50.058956 
3382.479146  	50.083147 
3383.916053  	50.294601 
3385.352960  	50.416120 
3386.789867  	50.446512 
3388.226774  	50.623737 
3389.663681  	50.715315 
3391.100588  	50.854554 
3392.537495  	51.016633 
3393.974402  	51.084515 
3395.411309  	51.283582 
3396.848216  	51.392485 
3398.285123  	51.489784 
3399.722030  	51.723809 
3401.158937  	51.776811 
3402.595844  	51.926814 
3404.032751  	52.193545 
3405.469658  	52.308921 
3406.906565  	52.539174 
3408.343473  	52.704972 
3409.780380  	52.792823 
3411.217287  	53.055047 
3412.654194  	53.193742 
3414.091101  	53.333025 
3415.528008  	53.564155 
3416.964915  	53.693106 
3418.401822  	53.943638 
3419.838729  	54.172504 
3421.275636  	54.331595 
3422.712543  	54.605438 
3424.149450  	54.732401 
3425.586357  	54.896556 
3427.023264  	55.156145 
3428.460171  	55.271140 
3429.897078  	55.521609 
3431.333985  	55.762199 
3432.770892  	55.871289 
3434.207799  	56.134340 
3435.644706  	56.313223 
3437.081613  	56.462880 
3438.518520  	56.754704 
3439.955427  	56.970351 
3441.392334  	57.212294 
3442.829241  	57.430417 
3444.266148  	57.595544 
3445.703055  	57.859604 
3447.139962  	58.032724 
3448.576869  	58.261098 
3450.013776  	58.546177 
3451.450683  	58.659785 
3452.887590  	58.916767 
3454.324497  	59.208712 
3455.761404  	59.346508 
3457.198311  	59.576012 
3458.635219  	59.749230 
3460.072126  	59.929815 
3461.509033  	60.212123 
3462.945940  	60.391994 
3464.382847  	60.662718 
3465.819754  	60.902823 
3467.256661  	61.005396 
3468.693568  	61.276310 
3470.130475  	61.545928 
3471.567382  	61.821896 
3473.004289  	62.149951 
3474.441196  	62.296233 
3475.878103  	62.526704 
3477.315010  	62.792641 
3478.751917  	62.920013 
3480.188824  	63.180171 
3481.625731  	63.398472 
3483.062638  	63.591894 
3484.499545  	63.898447 
3485.936452  	64.025145 
3487.373359  	64.206466 
3488.810266  	64.489152 
3490.247173  	64.635796 
3491.684080  	64.912947 
3493.120987  	65.178077 
3494.557894  	65.331465 
3495.994801  	65.604488 
3497.431708  	65.815368 
3498.868615  	66.013593 
3500.305522  	66.259629 
3501.742429  	66.422220 
3503.179336  	66.689294 
3504.616243  	66.953140 
3506.053150  	67.134195 
3507.490058  	67.396788 
3508.926965  	67.607992 
3510.363872  	67.841210 
3511.800779  	68.092118 
3513.237686  	68.263056 
3514.674593  	68.554431 
3516.111500  	68.793706 
3517.548407  	68.930924 
3518.985314  	69.185894 
3520.422221  	69.389467 
3521.859128  	69.605243 
3523.296035  	69.904853 
3524.732942  	70.101502 
3526.169849  	70.324047 
3527.606756  	70.550403 
3529.043663  	70.768610 
3530.480570  	71.049990 
3531.917477  	71.233245 
3533.354384  	71.470828 
3534.791291  	71.747276 
3536.228198  	71.927743 
3537.665105  	72.242372 
3539.102012  	72.478787 
3540.538919  	72.564723 
3541.975826  	72.814182 
3543.412733  	73.048572 
3544.849640  	73.249906 
3546.286547  	73.502872 
3547.723454  	73.635640 
3549.160361  	73.877022 
3550.597268  	74.126059 
3552.034175  	74.286258 
3553.471082  	74.626364 
3554.907989  	74.881473 
3556.344896  	75.032033 
3557.781804  	75.319324 
3559.218711  	75.561469 
3560.655618  	75.768380 
3562.092525  	75.963158 
3563.529432  	76.114936 
3564.966339  	76.370898 
3566.403246  	76.565612 
3567.840153  	76.734355 
3569.277060  	77.048127 
3570.713967  	77.227878 
3572.150874  	77.424970 
3573.587781  	77.675397 
3575.024688  	77.836636 
3576.461595  	78.025727 
3577.898502  	78.180087 
3579.335409  	78.338400 
3580.772316  	78.633077 
3582.209223  	78.870127 
3583.646130  	79.093167 
3585.083037  	79.347216 
3586.519944  	79.504358 
3587.956851  	79.663355 
3589.393758  	79.826244 
3590.830665  	80.027510 
3592.267572  	80.285848 
3593.704479  	80.500524 
3595.141386  	80.727644 
3596.578293  	80.895494 
3598.015200  	81.057277 
3599.452107  	81.391125 
3600.889014  	81.568746 
3602.325921  	81.569315 
3603.762828  	81.781650 
3605.199735  	82.068238 
3606.636642  	82.295541 
3608.073550  	82.400971 
3609.510457  	82.442298 
3610.947364  	82.686715 
3612.384271  	82.902359 
3613.821178  	83.138541 
3615.258085  	83.500772 
3616.694992  	83.620946 
3618.131899  	83.761832 
3619.568806  	84.172323 
3621.005713  	84.396542 
3622.442620  	84.494806 
3623.879527  	84.630798 
3625.316434  	84.842572 
3626.753341  	85.234722 
3628.190248  	85.513897 
3629.627155  	85.426202 
3631.064062  	85.524259 
3632.500969  	85.835134 
3633.937876  	86.016153 
3635.374783  	86.200016 
3636.811690  	86.561077 
3638.248597  	86.800643 
3639.685504  	86.841846 
3641.122411  	87.135251 
3642.559318  	87.526220 
3643.996225  	87.741373 
3645.433132  	88.015246 
3646.870039  	88.286877 
3648.306946  	88.682832 
3649.743853  	89.225023 
3651.180760  	89.046582 
3652.617667  	89.016018 
3654.054574  	89.486870 
3655.491481  	89.802242 
3656.928389  	89.999021 
3658.365296  	90.136016 
3659.802203  	90.292664 
3661.239110  	90.665964 
3662.676017  	91.014501 
3664.112924  	91.213979 
3665.549831  	91.418798 
3666.986738  	91.627291 
3668.423645  	91.879355 
3669.860552  	92.058046 
3671.297459  	92.067231 
3672.734366  	92.355312 
3674.171273  	92.721828 
3675.608180  	92.949622 
3677.045087  	92.967856 
3678.481994  	93.073961 
3679.918901  	93.231656 
3681.355808  	93.445390 
3682.792715  	93.652976 
3684.229622  	93.834262 
3685.666529  	93.995769 
3687.103436  	94.220412 
3688.540343  	94.446341 
3689.977250  	94.471567 
3691.414157  	94.492906 
3692.851064  	94.592033 
3694.287971  	94.747339 
3695.724878  	94.929211 
3697.161785  	95.033691 
3698.598692  	95.147919 
3700.035599  	95.349436 
3701.472506  	95.323806 
3702.909413  	95.180951 
3704.346320  	95.321249 
3705.783227  	95.575788 
3707.220135  	95.788952 
3708.657042  	95.938443 
3710.093949  	96.109751 
3711.530856  	96.155378 
3712.967763  	95.899574 
3714.404670  	95.883773 
3715.841577  	96.063580 
3717.278484  	96.152611 
3718.715391  	96.201126 
3720.152298  	96.297465 
3721.589205  	96.420049 
3723.026112  	96.382882 
3724.463019  	96.242364 
3725.899926  	96.219967 
3727.336833  	96.113846 
3728.773740  	96.220940 
3730.210647  	96.603691 
3731.647554  	96.676973 
3733.084461  	96.519982 
3734.521368  	96.656926 
3735.958275  	96.482576 
3737.395182  	96.271858 
3738.832089  	96.407593 
3740.268996  	96.331080 
3741.705903  	96.571606 
3743.142810  	97.075267 
3744.579717  	97.107383 
3746.016624  	96.806732 
3747.453531  	96.912688 
3748.890438  	96.871652 
3750.327345  	97.035005 
3751.764252  	97.311741 
3753.201159  	96.919650 
3754.638066  	96.714639 
3756.074973  	96.894931 
3757.511881  	97.030001 
3758.948788  	97.076184 
3760.385695  	96.907965 
3761.822602  	96.680498 
3763.259509  	96.877865 
3764.696416  	97.105030 
3766.133323  	97.036770 
3767.570230  	97.141937 
3769.007137  	97.418358 
3770.444044  	97.356149 
3771.880951  	97.166671 
3773.317858  	97.182864 
3774.754765  	97.163069 
3776.191672  	97.207552 
3777.628579  	97.306308 
3779.065486  	97.294751 
3780.502393  	97.180304 
3781.939300  	97.188879 
3783.376207  	97.210817 
3784.813114  	97.127538 
3786.250021  	97.127751 
3787.686928  	97.206896 
3789.123835  	97.189280 
3790.560742  	97.120087 
3791.997649  	97.136665 
3793.434556  	97.296315 
3794.871463  	97.402715 
3796.308370  	97.188500 
3797.745277  	96.902383 
3799.182184  	97.138949 
3800.619091  	97.405234 
3802.055998  	97.104218 
3803.492905  	96.762914 
3804.929812  	97.014374 
3806.366720  	97.164239 
3807.803627  	96.895454 
3809.240534  	96.758599 
3810.677441  	96.885631 
3812.114348  	96.965944 
3813.551255  	97.129125 
3814.988162  	97.256903 
3816.425069  	96.989435 
3817.861976  	96.862790 
3819.298883  	97.117445 
3820.735790  	97.055043 
3822.172697  	96.665555 
3823.609604  	96.870296 
3825.046511  	97.132980 
3826.483418  	97.064354 
3827.920325  	96.888283 
3829.357232  	96.998418 
3830.794139  	97.086705 
3832.231046  	97.010146 
3833.667953  	97.068605 
3835.104860  	97.123408 
3836.541767  	97.060158 
3837.978674  	97.201661 
3839.415581  	97.335318 
3840.852488  	97.250050 
3842.289395  	97.277961 
3843.726302  	97.203687 
3845.163209  	96.986964 
3846.600116  	97.013135 
3848.037023  	97.130727 
3849.473930  	97.186550 
3850.910837  	97.335994 
3852.347744  	97.461404 
3853.784651  	97.379597 
3855.221558  	97.320657 
3856.658466  	97.279284 
3858.095373  	97.121506 
3859.532280  	97.156436 
3860.969187  	97.322547 
3862.406094  	97.338907 
3863.843001  	97.258399 
3865.279908  	97.100323 
3866.716815  	97.101236 
3868.153722  	97.328460 
3869.590629  	97.339036 
3871.027536  	97.229118 
3872.464443  	97.451157 
3873.901350  	97.425567 
3875.338257  	97.157312 
3876.775164  	97.254593 
3878.212071  	97.434815 
3879.648978  	97.416013 
3881.085885  	97.214285 
3882.522792  	97.149331 
3883.959699  	97.326819 
3885.396606  	97.401850 
3886.833513  	97.230555 
3888.270420  	97.306888 
3889.707327  	97.466216 
3891.144234  	97.429555 
3892.581141  	97.316749 
3894.018048  	97.298695 
3895.454955  	97.290150 
3896.891862  	97.344318 
3898.328769  	97.501128 
3899.765676  	97.571971 
3901.202583  	97.470693 
3902.639490  	97.476781 
3904.076397  	97.505579 
3905.513305  	97.379401 
3906.950212  	97.303288 
3908.387119  	97.306281 
3909.824026  	97.390539 
3911.260933  	97.520004 
3912.697840  	97.392514 
3914.134747  	97.270636 
3915.571654  	97.344019 
3917.008561  	97.390403 
3918.445468  	97.398349 
3919.882375  	97.370983 
3921.319282  	97.334104 
3922.756189  	97.404212 
3924.193096  	97.452344 
3925.630003  	97.367867 
3927.066910  	97.364165 
3928.503817  	97.386906 
3929.940724  	97.369456 
3931.377631  	97.403704 
3932.814538  	97.433093 
3934.251445  	97.405303 
3935.688352  	97.406273 
3937.125259  	97.436594 
3938.562166  	97.427982 
3939.999073  	97.439960 
3941.435980  	97.492883 
3942.872887  	97.466002 
3944.309794  	97.365155 
3945.746701  	97.388796 
3947.183608  	97.448652 
3948.620515  	97.443479 
3950.057422  	97.422545 
3951.494329  	97.380382 
3952.931236  	97.366295 
3954.368143  	97.373404 
3955.805051  	97.340299 
3957.241958  	97.372053 
3958.678865  	97.509785 
3960.115772  	97.507032 
3961.552679  	97.452430 
3962.989586  	97.463048 
3964.426493  	97.485339 
3965.863400  	97.486825 
3967.300307  	97.470386 
3968.737214  	97.500657 
3970.174121  	97.542731 
3971.611028  	97.515957 
3973.047935  	97.486000 
3974.484842  	97.478258 
3975.921749  	97.479019 
3977.358656  	97.469087 
3978.795563  	97.425800 
3980.232470  	97.435757 
3981.669377  	97.479164 
3983.106284  	97.478638 
3984.543191  	97.491100 
3985.980098  	97.507007 
3987.417005  	97.532052 
3988.853912  	97.580085 
3990.290819  	97.553984 
3991.727726  	97.507972 
3993.164633  	97.514525 
3994.601540  	97.511777 
3996.038447  	97.509817 
3997.475354  	97.497343 
3998.912261  	97.488572 
4000.349168  	97.520566 