##TITLE=No Description
##DATA TYPE=INFRARED SPECTRUM
##XUNITS=1/CM
##YUNITS=%T
399.460154  	33.417409 
400.897061  	31.339317 
402.333968  	31.031665 
403.770875  	30.841445 
405.207782  	31.096880 
406.644689  	32.249404 
408.081596  	32.271885 
409.518503  	31.832783 
410.955410  	31.605235 
412.392317  	31.086204 
413.829224  	31.251617 
415.266131  	31.599405 
416.703038  	31.676908 
418.139945  	32.251849 
419.576852  	31.893893 
421.013759  	31.142770 
422.450666  	30.839267 
423.887574  	30.550344 
425.324481  	30.564350 
426.761388  	30.478550 
428.198295  	30.535579 
429.635202  	31.160372 
431.072109  	31.678101 
432.509016  	31.699921 
433.945923  	31.282798 
435.382830  	31.205655 
436.819737  	31.484413 
438.256644  	30.955813 
439.693551  	30.502243 
441.130458  	30.736912 
442.567365  	30.875477 
444.004272  	31.466463 
445.441179  	31.802703 
446.878086  	31.233823 
448.314993  	31.258086 
449.751900  	31.582047 
451.188807  	31.535329 
452.625714  	31.703422 
454.062621  	31.720359 
455.499528  	31.686777 
456.936435  	32.187829 
458.373342  	32.662308 
459.810249  	32.400669 
461.247156  	32.040365 
462.684063  	31.764347 
464.120970  	31.384852 
465.557877  	31.159998 
466.994784  	31.689040 
468.431691  	32.058864 
469.868598  	31.915512 
471.305505  	31.885034 
472.742413  	31.455927 
474.179320  	30.979408 
475.616227  	30.957935 
477.053134  	31.180855 
478.490041  	31.754844 
479.926948  	31.867933 
481.363855  	31.621785 
482.800762  	31.976896 
484.237669  	32.057037 
485.674576  	31.744742 
487.111483  	31.964225 
488.548390  	32.221011 
489.985297  	32.156158 
491.422204  	31.952736 
492.859111  	31.989025 
494.296018  	32.327361 
495.732925  	32.228042 
497.169832  	31.943549 
498.606739  	32.053653 
500.043646  	32.095001 
501.480553  	32.154627 
502.917460  	32.139104 
504.354367  	31.954135 
505.791274  	32.179859 
507.228181  	32.389015 
508.665088  	32.285417 
510.101995  	32.331209 
511.538902  	32.344384 
512.975809  	32.480081 
514.412716  	32.668963 
515.849623  	32.515706 
517.286530  	32.627504 
518.723437  	32.969008 
520.160344  	32.848563 
521.597251  	32.707619 
523.034159  	32.748817 
524.471066  	32.877307 
525.907973  	33.116629 
527.344880  	33.173527 
528.781787  	33.107502 
530.218694  	33.183944 
531.655601  	33.368962 
533.092508  	33.473129 
534.529415  	33.366366 
535.966322  	33.334310 
537.403229  	33.531957 
538.840136  	33.596585 
540.277043  	33.474670 
541.713950  	33.458874 
543.150857  	33.666490 
544.587764  	33.834673 
546.024671  	33.837415 
547.461578  	33.998089 
548.898485  	34.202790 
550.335392  	34.209883 
551.772299  	34.270239 
553.209206  	34.374353 
554.646113  	34.446872 
556.083020  	34.523809 
557.519927  	34.506189 
558.956834  	34.619005 
560.393741  	34.832832 
561.830648  	34.767107 
563.267555  	34.672545 
564.704462  	34.838946 
566.141369  	35.072753 
567.578276  	35.228911 
569.015183  	35.292493 
570.452090  	35.415705 
571.888997  	35.567061 
573.325905  	35.590108 
574.762812  	35.621406 
576.199719  	35.670498 
577.636626  	35.706060 
579.073533  	35.870214 
580.510440  	36.034666 
581.947347  	36.094155 
583.384254  	36.174597 
584.821161  	36.298885 
586.258068  	36.446233 
587.694975  	36.540038 
589.131882  	36.567098 
590.568789  	36.691204 
592.005696  	36.895354 
593.442603  	37.041394 
594.879510  	37.143755 
596.316417  	37.242804 
597.753324  	37.313904 
599.190231  	37.347006 
600.627138  	37.494702 
602.064045  	37.773610 
603.500952  	37.939169 
604.937859  	38.003800 
606.374766  	38.073799 
607.811673  	38.109993 
609.248580  	38.174570 
610.685487  	38.274965 
612.122394  	38.379586 
613.559301  	38.541615 
614.996208  	38.718065 
616.433115  	38.902126 
617.870022  	39.079535 
619.306929  	39.193063 
620.743836  	39.341698 
622.180744  	39.520992 
623.617651  	39.659642 
625.054558  	39.803519 
626.491465  	39.917131 
627.928372  	40.046608 
629.365279  	40.233390 
630.802186  	40.336796 
632.239093  	40.432978 
633.676000  	40.622059 
635.112907  	40.798487 
636.549814  	40.935258 
637.986721  	41.061550 
639.423628  	41.177732 
640.860535  	41.296236 
642.297442  	41.394269 
643.734349  	41.559216 
645.171256  	41.790576 
646.608163  	41.958500 
648.045070  	42.116804 
649.481977  	42.288715 
650.918884  	42.438103 
652.355791  	42.594053 
653.792698  	42.757592 
655.229605  	42.926793 
656.666512  	43.096128 
658.103419  	43.268664 
659.540326  	43.447302 
660.977233  	43.591283 
662.414140  	43.716874 
663.851047  	43.873549 
665.287954  	43.985417 
666.724861  	44.121110 
668.161768  	44.376304 
669.598675  	44.611389 
671.035582  	44.767177 
672.472490  	44.966444 
673.909397  	45.138854 
675.346304  	45.282261 
676.783211  	45.452197 
678.220118  	45.630299 
679.657025  	45.816023 
681.093932  	46.033941 
682.530839  	46.243919 
683.967746  	46.430007 
685.404653  	46.616570 
686.841560  	46.794562 
688.278467  	46.984388 
689.715374  	47.200057 
691.152281  	47.393462 
692.589188  	47.554345 
694.026095  	47.751732 
695.463002  	47.965661 
696.899909  	48.121240 
698.336816  	48.320439 
699.773723  	48.578513 
701.210630  	48.787438 
702.647537  	48.958636 
704.084444  	49.167530 
705.521351  	49.387493 
706.958258  	49.558486 
708.395165  	49.731883 
709.832072  	49.969262 
711.268979  	50.192500 
712.705886  	50.354764 
714.142793  	50.540216 
715.579700  	50.767358 
717.016607  	50.986111 
718.453514  	51.193034 
719.890421  	51.396891 
721.327328  	51.600465 
722.764236  	51.801306 
724.201143  	52.000244 
725.638050  	52.220267 
727.074957  	52.434195 
728.511864  	52.655419 
729.948771  	52.873226 
731.385678  	53.077674 
732.822585  	53.292785 
734.259492  	53.475443 
735.696399  	53.764619 
737.133306  	54.033682 
738.570213  	54.227003 
740.007120  	54.456713 
741.444027  	54.700584 
742.880934  	54.892719 
744.317841  	55.103592 
745.754748  	55.344452 
747.191655  	55.570243 
748.628562  	55.813356 
750.065469  	56.082579 
751.502376  	56.326180 
752.939283  	56.500890 
754.376190  	56.630918 
755.813097  	56.842803 
757.250004  	57.140600 
758.686911  	57.398411 
760.123818  	57.647374 
761.560725  	57.896585 
762.997632  	58.095699 
764.434539  	58.376963 
765.871446  	58.685595 
767.308353  	58.843816 
768.745260  	59.029248 
770.182167  	59.299062 
771.619075  	59.494621 
773.055982  	59.733700 
774.492889  	60.050319 
775.929796  	60.299513 
777.366703  	60.518218 
778.803610  	60.732284 
780.240517  	60.952223 
781.677424  	61.235515 
783.114331  	61.504002 
784.551238  	61.731772 
785.988145  	61.982110 
787.425052  	62.218472 
788.861959  	62.419833 
790.298866  	62.627376 
791.735773  	62.877394 
793.172680  	63.160359 
794.609587  	63.422660 
796.046494  	63.664337 
797.483401  	63.890310 
798.920308  	64.111552 
800.357215  	64.379783 
801.794122  	64.637798 
803.231029  	64.836784 
804.667936  	65.073649 
806.104843  	65.393147 
807.541750  	65.710177 
808.978657  	65.924081 
810.415564  	66.099374 
811.852471  	66.385885 
813.289378  	66.701227 
814.726285  	66.922367 
816.163192  	67.127580 
817.600099  	67.375976 
819.037006  	67.656518 
820.473913  	67.945321 
821.910821  	68.204868 
823.347728  	68.442005 
824.784635  	68.659883 
826.221542  	68.873440 
827.658449  	69.111482 
829.095356  	69.359674 
830.532263  	69.633785 
831.969170  	69.929903 
833.406077  	70.195853 
834.842984  	70.435882 
836.279891  	70.671417 
837.716798  	70.923802 
839.153705  	71.187058 
840.590612  	71.423643 
842.027519  	71.654950 
843.464426  	71.881868 
844.901333  	72.111345 
846.338240  	72.392259 
847.775147  	72.667873 
849.212054  	72.899033 
850.648961  	73.137684 
852.085868  	73.393672 
853.522775  	73.655040 
854.959682  	73.887943 
856.396589  	74.113595 
857.833496  	74.379376 
859.270403  	74.614687 
860.707310  	74.828872 
862.144217  	75.075217 
863.581124  	75.302439 
865.018031  	75.531657 
866.454938  	75.770201 
867.891845  	76.001563 
869.328752  	76.255263 
870.765660  	76.471832 
872.202567  	76.687606 
873.639474  	76.950588 
875.076381  	77.155500 
876.513288  	77.352557 
877.950195  	77.579257 
879.387102  	77.768690 
880.824009  	77.982526 
882.260916  	78.205586 
883.697823  	78.431495 
885.134730  	78.697424 
886.571637  	78.894300 
888.008544  	79.068417 
889.445451  	79.296285 
890.882358  	79.504777 
892.319265  	79.718090 
893.756172  	79.901188 
895.193079  	80.065752 
896.629986  	80.309130 
898.066893  	80.499600 
899.503800  	80.628062 
900.940707  	80.811681 
902.377614  	80.984743 
903.814521  	81.159693 
905.251428  	81.345637 
906.688335  	81.515309 
908.125242  	81.719076 
909.562149  	81.871027 
910.999056  	81.981533 
912.435963  	82.169076 
913.872870  	82.368018 
915.309777  	82.551307 
916.746684  	82.715291 
918.183591  	82.844555 
919.620498  	83.004557 
921.057406  	83.160819 
922.494313  	83.327205 
923.931220  	83.525256 
925.368127  	83.643593 
926.805034  	83.750955 
928.241941  	83.902656 
929.678848  	84.014302 
931.115755  	84.126406 
932.552662  	84.254294 
933.989569  	84.416090 
935.426476  	84.612123 
936.863383  	84.718998 
938.300290  	84.799059 
939.737197  	84.928478 
941.174104  	85.045626 
942.611011  	85.168292 
944.047918  	85.247247 
945.484825  	85.320611 
946.921732  	85.493327 
948.358639  	85.613020 
949.795546  	85.667507 
951.232453  	85.795610 
952.669360  	85.934380 
954.106267  	86.036368 
955.543174  	86.098430 
956.980081  	86.161670 
958.416988  	86.290510 
959.853895  	86.391250 
961.290802  	86.454753 
962.727709  	86.540351 
964.164616  	86.612112 
965.601523  	86.707297 
967.038430  	86.806410 
968.475337  	86.873460 
969.912244  	86.968080 
971.349152  	87.045764 
972.786059  	87.108665 
974.222966  	87.193319 
975.659873  	87.240014 
977.096780  	87.293304 
978.533687  	87.373911 
979.970594  	87.432869 
981.407501  	87.489371 
982.844408  	87.553763 
984.281315  	87.659480 
985.718222  	87.736522 
987.155129  	87.704850 
988.592036  	87.731561 
990.028943  	87.837071 
991.465850  	87.891491 
992.902757  	87.936564 
994.339664  	87.980050 
995.776571  	88.026893 
997.213478  	88.085942 
998.650385  	88.103586 
1000.087292  	88.143907 
1001.524199  	88.191526 
1002.961106  	88.199083 
1004.398013  	88.250112 
1005.834920  	88.284179 
1007.271827  	88.291364 
1008.708734  	88.353596 
1010.145641  	88.390567 
1011.582548  	88.416591 
1013.019455  	88.462678 
1014.456362  	88.495865 
1015.893269  	88.583274 
1017.330176  	88.659247 
1018.767083  	88.690151 
1020.203991  	88.763494 
1021.640898  	88.805998 
1023.077805  	88.818795 
1024.514712  	88.828620 
1025.951619  	88.795105 
1027.388526  	88.814694 
1028.825433  	88.835024 
1030.262340  	88.792356 
1031.699247  	88.817947 
1033.136154  	88.846245 
1034.573061  	88.829260 
1036.009968  	88.857646 
1037.446875  	88.887481 
1038.883782  	88.925764 
1040.320689  	88.959514 
1041.757596  	88.938055 
1043.194503  	88.950683 
1044.631410  	88.985935 
1046.068317  	89.023874 
1047.505224  	89.108123 
1048.942131  	89.151737 
1050.379038  	89.164305 
1051.815945  	89.201419 
1053.252852  	89.223558 
1054.689759  	89.259657 
1056.126666  	89.308207 
1057.563573  	89.355140 
1059.000480  	89.414604 
1060.437387  	89.446367 
1061.874294  	89.475011 
1063.311201  	89.497593 
1064.748108  	89.501425 
1066.185015  	89.553101 
1067.621922  	89.593140 
1069.058829  	89.598694 
1070.495737  	89.628540 
1071.932644  	89.623267 
1073.369551  	89.605166 
1074.806458  	89.614962 
1076.243365  	89.615799 
1077.680272  	89.630552 
1079.117179  	89.631866 
1080.554086  	89.635804 
1081.990993  	89.669929 
1083.427900  	89.635510 
1084.864807  	89.592295 
1086.301714  	89.611391 
1087.738621  	89.614642 
1089.175528  	89.631987 
1090.612435  	89.657727 
1092.049342  	89.647583 
1093.486249  	89.650819 
1094.923156  	89.649344 
1096.360063  	89.651843 
1097.796970  	89.679362 
1099.233877  	89.671466 
1100.670784  	89.649481 
1102.107691  	89.665565 
1103.544598  	89.723444 
1104.981505  	89.762704 
1106.418412  	89.732130 
1107.855319  	89.734315 
1109.292226  	89.766579 
1110.729133  	89.752975 
1112.166040  	89.782199 
1113.602947  	89.818798 
1115.039854  	89.802616 
1116.476761  	89.818655 
1117.913668  	89.837420 
1119.350575  	89.851525 
1120.787483  	89.878336 
1122.224390  	89.864623 
1123.661297  	89.875160 
1125.098204  	89.902822 
1126.535111  	89.892429 
1127.972018  	89.917428 
1129.408925  	89.948603 
1130.845832  	89.952111 
1132.282739  	89.955935 
1133.719646  	89.937149 
1135.156553  	89.940979 
1136.593460  	89.948628 
1138.030367  	89.928947 
1139.467274  	89.956039 
1140.904181  	89.965939 
1142.341088  	89.944560 
1143.777995  	89.968416 
1145.214902  	89.960267 
1146.651809  	89.942172 
1148.088716  	89.964544 
1149.525623  	89.948062 
1150.962530  	89.922501 
1152.399437  	89.911685 
1153.836344  	89.904455 
1155.273251  	89.933874 
1156.710158  	89.936658 
1158.147065  	89.905650 
1159.583972  	89.902515 
1161.020879  	89.911392 
1162.457786  	89.925092 
1163.894693  	89.915317 
1165.331600  	89.897676 
1166.768507  	89.921912 
1168.205414  	89.912635 
1169.642322  	89.871553 
1171.079229  	89.863864 
1172.516136  	89.855841 
1173.953043  	89.858548 
1175.389950  	89.862582 
1176.826857  	89.843907 
1178.263764  	89.848494 
1179.700671  	89.843173 
1181.137578  	89.830130 
1182.574485  	89.852092 
1184.011392  	89.847598 
1185.448299  	89.833443 
1186.885206  	89.844035 
1188.322113  	89.827884 
1189.759020  	89.803625 
1191.195927  	89.794801 
1192.632834  	89.797196 
1194.069741  	89.809996 
1195.506648  	89.802552 
1196.943555  	89.799885 
1198.380462  	89.814819 
1199.817369  	89.807459 
1201.254276  	89.792820 
1202.691183  	89.782430 
1204.128090  	89.779859 
1205.564997  	89.781130 
1207.001904  	89.758129 
1208.438811  	89.751982 
1209.875718  	89.769753 
1211.312625  	89.766414 
1212.749532  	89.773744 
1214.186439  	89.788747 
1215.623346  	89.782487 
1217.060253  	89.778652 
1218.497160  	89.779177 
1219.934068  	89.782535 
1221.370975  	89.778482 
1222.807882  	89.771836 
1224.244789  	89.790600 
1225.681696  	89.787627 
1227.118603  	89.762812 
1228.555510  	89.770645 
1229.992417  	89.772785 
1231.429324  	89.762468 
1232.866231  	89.764821 
1234.303138  	89.767263 
1235.740045  	89.781808 
1237.176952  	89.782514 
1238.613859  	89.759896 
1240.050766  	89.753682 
1241.487673  	89.751684 
1242.924580  	89.758752 
1244.361487  	89.764924 
1245.798394  	89.740981 
1247.235301  	89.740168 
1248.672208  	89.755436 
1250.109115  	89.740363 
1251.546022  	89.722667 
1252.982929  	89.704755 
1254.419836  	89.694637 
1255.856743  	89.703455 
1257.293650  	89.706494 
1258.730557  	89.708614 
1260.167464  	89.691948 
1261.604371  	89.667156 
1263.041278  	89.682700 
1264.478185  	89.696320 
1265.915092  	89.690229 
1267.351999  	89.685708 
1268.788907  	89.668854 
1270.225814  	89.658252 
1271.662721  	89.648442 
1273.099628  	89.639058 
1274.536535  	89.646774 
1275.973442  	89.629551 
1277.410349  	89.616947 
1278.847256  	89.629526 
1280.284163  	89.612180 
1281.721070  	89.608513 
1283.157977  	89.624248 
1284.594884  	89.621715 
1286.031791  	89.639002 
1287.468698  	89.644248 
1288.905605  	89.640740 
1290.342512  	89.667549 
1291.779419  	89.662150 
1293.216326  	89.655532 
1294.653233  	89.678128 
1296.090140  	89.669620 
1297.527047  	89.662189 
1298.963954  	89.670098 
1300.400861  	89.683698 
1301.837768  	89.691595 
1303.274675  	89.707084 
1304.711582  	89.710413 
1306.148489  	89.740760 
1307.585396  	89.738994 
1309.022303  	89.731538 
1310.459210  	89.738595 
1311.896117  	89.731944 
1313.333024  	89.725663 
1314.769931  	89.719164 
1316.206838  	89.710984 
1317.643745  	89.719290 
1319.080653  	89.723152 
1320.517560  	89.742690 
1321.954467  	89.750600 
1323.391374  	89.745983 
1324.828281  	89.757653 
1326.265188  	89.769783 
1327.702095  	89.760270 
1329.139002  	89.764645 
1330.575909  	89.762728 
1332.012816  	89.759838 
1333.449723  	89.760802 
1334.886630  	89.743994 
1336.323537  	89.734653 
1337.760444  	89.710520 
1339.197351  	89.686027 
1340.634258  	89.674399 
1342.071165  	89.671994 
1343.508072  	89.689160 
1344.944979  	89.683484 
1346.381886  	89.662648 
1347.818793  	89.661869 
1349.255700  	89.657484 
1350.692607  	89.635197 
1352.129514  	89.629927 
1353.566421  	89.622100 
1355.003328  	89.610946 
1356.440235  	89.611734 
1357.877142  	89.586524 
1359.314049  	89.575209 
1360.750956  	89.562665 
1362.187863  	89.526614 
1363.624770  	89.493397 
1365.061677  	89.497978 
1366.498584  	89.502901 
1367.935491  	89.482761 
1369.372399  	89.419853 
1370.809306  	89.405190 
1372.246213  	89.393757 
1373.683120  	89.336629 
1375.120027  	89.302092 
1376.556934  	89.285009 
1377.993841  	89.264422 
1379.430748  	89.241511 
1380.867655  	89.218733 
1382.304562  	89.207947 
1383.741469  	89.202374 
1385.178376  	89.197653 
1386.615283  	89.195196 
1388.052190  	89.157681 
1389.489097  	89.156579 
1390.926004  	89.189674 
1392.362911  	89.204831 
1393.799818  	89.194228 
1395.236725  	89.171141 
1396.673632  	89.179963 
1398.110539  	89.230885 
1399.547446  	89.236817 
1400.984353  	89.245641 
1402.421260  	89.285967 
1403.858167  	89.306670 
1405.295074  	89.296792 
1406.731981  	89.307611 
1408.168888  	89.329271 
1409.605795  	89.370851 
1411.042702  	89.395716 
1412.479609  	89.387485 
1413.916516  	89.403277 
1415.353423  	89.410699 
1416.790330  	89.428710 
1418.227238  	89.461978 
1419.664145  	89.400875 
1421.101052  	89.418937 
1422.537959  	89.468434 
1423.974866  	89.458851 
1425.411773  	89.473020 
1426.848680  	89.517661 
1428.285587  	89.527817 
1429.722494  	89.514039 
1431.159401  	89.479706 
1432.596308  	89.477141 
1434.033215  	89.518464 
1435.470122  	89.518477 
1436.907029  	89.425529 
1438.343936  	89.373051 
1439.780843  	89.434924 
1441.217750  	89.493997 
1442.654657  	89.488523 
1444.091564  	89.492939 
1445.528471  	89.493007 
1446.965378  	89.478642 
1448.402285  	89.463627 
1449.839192  	89.463412 
1451.276099  	89.467296 
1452.713006  	89.466448 
1454.149913  	89.431845 
1455.586820  	89.402614 
1457.023727  	89.362548 
1458.460634  	89.305314 
1459.897541  	89.339117 
1461.334448  	89.371843 
1462.771355  	89.381168 
1464.208262  	89.380925 
1465.645169  	89.325478 
1467.082076  	89.307867 
1468.518984  	89.313504 
1469.955891  	89.301244 
1471.392798  	89.289311 
1472.829705  	89.218554 
1474.266612  	89.175056 
1475.703519  	89.208287 
1477.140426  	89.180798 
1478.577333  	89.181651 
1480.014240  	89.197031 
1481.451147  	89.144611 
1482.888054  	89.120683 
1484.324961  	89.117828 
1485.761868  	89.076052 
1487.198775  	89.060705 
1488.635682  	89.032320 
1490.072589  	88.954816 
1491.509496  	88.913354 
1492.946403  	88.905692 
1494.383310  	88.913029 
1495.820217  	88.880126 
1497.257124  	88.794585 
1498.694031  	88.758219 
1500.130938  	88.714148 
1501.567845  	88.674222 
1503.004752  	88.666607 
1504.441659  	88.639272 
1505.878566  	88.611192 
1507.315473  	88.478393 
1508.752380  	88.356087 
1510.189287  	88.402892 
1511.626194  	88.386237 
1513.063101  	88.344458 
1514.500008  	88.327437 
1515.936915  	88.250443 
1517.373822  	88.159743 
1518.810730  	88.137648 
1520.247637  	88.096284 
1521.684544  	88.045279 
1523.121451  	87.958199 
1524.558358  	87.902816 
1525.995265  	87.857154 
1527.432172  	87.766748 
1528.869079  	87.737705 
1530.305986  	87.713424 
1531.742893  	87.617719 
1533.179800  	87.535093 
1534.616707  	87.396849 
1536.053614  	87.315247 
1537.490521  	87.294246 
1538.927428  	87.204615 
1540.364335  	86.999583 
1541.801242  	86.889457 
1543.238149  	86.754340 
1544.675056  	86.655187 
1546.111963  	86.542733 
1547.548870  	86.462470 
1548.985777  	86.379943 
1550.422684  	86.199097 
1551.859591  	86.073787 
1553.296498  	85.995747 
1554.733405  	85.806772 
1556.170312  	85.695568 
1557.607219  	85.641707 
1559.044126  	85.391663 
1560.481033  	85.180044 
1561.917940  	85.077664 
1563.354847  	84.961449 
1564.791754  	84.872619 
1566.228661  	84.681392 
1567.665569  	84.595970 
1569.102476  	84.496693 
1570.539383  	84.174509 
1571.976290  	84.082521 
1573.413197  	83.926400 
1574.850104  	83.732532 
1576.287011  	83.573252 
1577.723918  	83.307184 
1579.160825  	83.117809 
1580.597732  	82.940981 
1582.034639  	82.696576 
1583.471546  	82.510649 
1584.908453  	82.291124 
1586.345360  	82.005476 
1587.782267  	81.799177 
1589.219174  	81.493089 
1590.656081  	81.191003 
1592.092988  	80.914135 
1593.529895  	80.559716 
1594.966802  	80.245203 
1596.403709  	79.902772 
1597.840616  	79.508289 
1599.277523  	79.184579 
1600.714430  	78.745724 
1602.151337  	78.294291 
1603.588244  	77.880432 
1605.025151  	77.379796 
1606.462058  	76.929031 
1607.898965  	76.470834 
1609.335872  	75.942505 
1610.772779  	75.486172 
1612.209686  	74.973938 
1613.646593  	74.447650 
1615.083500  	74.075070 
1616.520407  	73.446287 
1617.957315  	72.886740 
1619.394222  	72.520978 
1620.831129  	71.991782 
1622.268036  	71.637411 
1623.704943  	71.254870 
1625.141850  	70.786796 
1626.578757  	70.560948 
1628.015664  	70.189817 
1629.452571  	69.897273 
1630.889478  	69.788002 
1632.326385  	69.546798 
1633.763292  	69.411962 
1635.200199  	69.320019 
1636.637106  	69.298503 
1638.074013  	69.563536 
1639.510920  	69.580166 
1640.947827  	69.667263 
1642.384734  	69.901923 
1643.821641  	69.968155 
1645.258548  	70.159636 
1646.695455  	70.547070 
1648.132362  	70.848701 
1649.569269  	71.209881 
1651.006176  	71.335154 
1652.443083  	71.383762 
1653.879990  	72.624534 
1655.316897  	72.840365 
1656.753804  	73.052144 
1658.190711  	73.488711 
1659.627618  	73.826873 
1661.064525  	74.248108 
1662.501432  	74.717408 
1663.938339  	75.195937 
1665.375246  	75.678813 
1666.812154  	76.066579 
1668.249061  	76.475858 
1669.685968  	77.048064 
1671.122875  	77.522687 
1672.559782  	77.967299 
1673.996689  	78.412569 
1675.433596  	78.876199 
1676.870503  	79.447424 
1678.307410  	79.864551 
1679.744317  	80.264752 
1681.181224  	80.771723 
1682.618131  	81.126326 
1684.055038  	81.515413 
1685.491945  	82.229381 
1686.928852  	82.579397 
1688.365759  	83.004974 
1689.802666  	83.446176 
1691.239573  	83.842204 
1692.676480  	84.306397 
1694.113387  	84.615614 
1695.550294  	84.908514 
1696.987201  	85.328241 
1698.424108  	85.584303 
1699.861015  	85.883593 
1701.297922  	86.303963 
1702.734829  	86.545267 
1704.171736  	86.871114 
1705.608643  	87.189448 
1707.045550  	87.466478 
1708.482457  	87.796465 
1709.919364  	88.069884 
1711.356271  	88.362767 
1712.793178  	88.659532 
1714.230085  	88.882687 
1715.666992  	89.180954 
1717.103900  	89.462253 
1718.540807  	89.660923 
1719.977714  	89.988834 
1721.414621  	90.237622 
1722.851528  	90.482160 
1724.288435  	90.751946 
1725.725342  	90.943767 
1727.162249  	91.191664 
1728.599156  	91.360686 
1730.036063  	91.472865 
1731.472970  	91.661167 
1732.909877  	91.816610 
1734.346784  	91.896315 
1735.783691  	92.018363 
1737.220598  	92.154749 
1738.657505  	92.307232 
1740.094412  	92.422572 
1741.531319  	92.503946 
1742.968226  	92.634915 
1744.405133  	92.715896 
1745.842040  	92.837773 
1747.278947  	93.022192 
1748.715854  	93.105488 
1750.152761  	93.214083 
1751.589668  	93.313632 
1753.026575  	93.381855 
1754.463482  	93.566533 
1755.900389  	93.673021 
1757.337296  	93.677697 
1758.774203  	93.785569 
1760.211110  	93.864327 
1761.648017  	93.931346 
1763.084924  	93.998923 
1764.521831  	94.045731 
1765.958738  	94.184548 
1767.395646  	94.240352 
1768.832553  	94.229243 
1770.269460  	94.328613 
1771.706367  	94.367730 
1773.143274  	94.350113 
1774.580181  	94.425947 
1776.017088  	94.448635 
1777.453995  	94.503828 
1778.890902  	94.575292 
1780.327809  	94.588526 
1781.764716  	94.634282 
1783.201623  	94.705919 
1784.638530  	94.749553 
1786.075437  	94.792079 
1787.512344  	94.825873 
1788.949251  	94.880593 
1790.386158  	94.931495 
1791.823065  	94.915795 
1793.259972  	94.939163 
1794.696879  	94.957194 
1796.133786  	94.988732 
1797.570693  	95.052039 
1799.007600  	95.079118 
1800.444507  	95.102380 
1801.881414  	95.111871 
1803.318321  	95.117249 
1804.755228  	95.199284 
1806.192135  	95.244736 
1807.629042  	95.237310 
1809.065949  	95.258014 
1810.502856  	95.261684 
1811.939763  	95.284749 
1813.376670  	95.322685 
1814.813577  	95.358823 
1816.250485  	95.424016 
1817.687392  	95.421659 
1819.124299  	95.398618 
1820.561206  	95.421077 
1821.998113  	95.400967 
1823.435020  	95.434900 
1824.871927  	95.489599 
1826.308834  	95.448050 
1827.745741  	95.485885 
1829.182648  	95.511684 
1830.619555  	95.451397 
1832.056462  	95.492167 
1833.493369  	95.530321 
1834.930276  	95.557891 
1836.367183  	95.566937 
1837.804090  	95.543315 
1839.240997  	95.589646 
1840.677904  	95.621839 
1842.114811  	95.639890 
1843.551718  	95.697082 
1844.988625  	95.609655 
1846.425532  	95.593671 
1847.862439  	95.666778 
1849.299346  	95.621463 
1850.736253  	95.635426 
1852.173160  	95.679658 
1853.610067  	95.645797 
1855.046974  	95.674394 
1856.483881  	95.683346 
1857.920788  	95.679212 
1859.357695  	95.742823 
1860.794602  	95.759049 
1862.231509  	95.759023 
1863.668416  	95.771122 
1865.105323  	95.771252 
1866.542231  	95.837883 
1867.979138  	95.816629 
1869.416045  	95.713536 
1870.852952  	95.722927 
1872.289859  	95.752643 
1873.726766  	95.810984 
1875.163673  	95.840435 
1876.600580  	95.756969 
1878.037487  	95.804379 
1879.474394  	95.797813 
1880.911301  	95.743344 
1882.348208  	95.804965 
1883.785115  	95.790336 
1885.222022  	95.783421 
1886.658929  	95.830037 
1888.095836  	95.808384 
1889.532743  	95.835297 
1890.969650  	95.845056 
1892.406557  	95.845531 
1893.843464  	95.879512 
1895.280371  	95.829845 
1896.717278  	95.815941 
1898.154185  	95.836324 
1899.591092  	95.795873 
1901.027999  	95.809321 
1902.464906  	95.804686 
1903.901813  	95.754163 
1905.338720  	95.792517 
1906.775627  	95.753892 
1908.212534  	95.722997 
1909.649441  	95.758461 
1911.086348  	95.684629 
1912.523255  	95.705427 
1913.960162  	95.831952 
1915.397069  	95.850939 
1916.833977  	95.870936 
1918.270884  	95.724664 
1919.707791  	95.631201 
1921.144698  	95.786627 
1922.581605  	95.830132 
1924.018512  	95.802588 
1925.455419  	95.777777 
1926.892326  	95.712877 
1928.329233  	95.735089 
1929.766140  	95.775854 
1931.203047  	95.747802 
1932.639954  	95.849269 
1934.076861  	95.816082 
1935.513768  	95.836345 
1936.950675  	95.809655 
1938.387582  	95.646284 
1939.824489  	95.814075 
1941.261396  	95.921817 
1942.698303  	95.741615 
1944.135210  	95.720083 
1945.572117  	95.659045 
1947.009024  	95.705162 
1948.445931  	95.827804 
1949.882838  	95.787240 
1951.319745  	95.774820 
1952.756652  	95.689373 
1954.193559  	95.708777 
1955.630466  	95.908469 
1957.067373  	95.634165 
1958.504280  	95.508173 
1959.941187  	95.848093 
1961.378094  	95.754292 
1962.815001  	95.603614 
1964.251908  	95.709616 
1965.688816  	95.768205 
1967.125723  	95.741779 
1968.562630  	95.506257 
1969.999537  	95.572645 
1971.436444  	95.693234 
1972.873351  	95.511317 
1974.310258  	95.483126 
1975.747165  	95.478338 
1977.184072  	95.285008 
1978.620979  	95.278942 
1980.057886  	95.265762 
1981.494793  	95.203661 
1982.931700  	95.229396 
1984.368607  	95.220525 
1985.805514  	95.278841 
1987.242421  	95.297411 
1988.679328  	95.209217 
1990.116235  	95.252637 
1991.553142  	95.255590 
1992.990049  	95.236365 
1994.426956  	95.261448 
1995.863863  	95.131619 
1997.300770  	94.953619 
1998.737677  	95.026997 
2000.174584  	94.948573 
2001.611491  	94.930478 
2003.048398  	94.929139 
2004.485305  	94.987123 
2005.922212  	94.984049 
2007.359119  	94.598088 
2008.796026  	94.614108 
2010.232933  	94.890793 
2011.669840  	94.721667 
2013.106747  	94.636220 
2014.543654  	94.612432 
2015.980562  	94.656070 
2017.417469  	94.879414 
2018.854376  	94.720813 
2020.291283  	94.693106 
2021.728190  	94.771337 
2023.165097  	94.490784 
2024.602004  	94.548334 
2026.038911  	94.665673 
2027.475818  	94.379346 
2028.912725  	94.182156 
2030.349632  	94.144197 
2031.786539  	94.434790 
2033.223446  	94.667526 
2034.660353  	94.377464 
2036.097260  	94.408150 
2037.534167  	94.566722 
2038.971074  	94.390358 
2040.407981  	94.226477 
2041.844888  	94.040441 
2043.281795  	94.144273 
2044.718702  	94.490135 
2046.155609  	94.501601 
2047.592516  	94.470710 
2049.029423  	94.319914 
2050.466330  	94.085800 
2051.903237  	94.232798 
2053.340144  	94.363993 
2054.777051  	94.303415 
2056.213958  	94.264083 
2057.650865  	94.190832 
2059.087772  	94.181708 
2060.524679  	94.096250 
2061.961586  	93.972237 
2063.398493  	94.100159 
2064.835401  	94.067100 
2066.272308  	93.864715 
2067.709215  	93.957187 
2069.146122  	94.118626 
2070.583029  	94.189455 
2072.019936  	94.169645 
2073.456843  	94.143196 
2074.893750  	94.268506 
2076.330657  	94.177246 
2077.767564  	93.908073 
2079.204471  	93.905088 
2080.641378  	93.981436 
2082.078285  	93.986973 
2083.515192  	93.979581 
2084.952099  	93.939956 
2086.389006  	93.982801 
2087.825913  	93.967799 
2089.262820  	93.873106 
2090.699727  	93.956802 
2092.136634  	94.054802 
2093.573541  	94.034601 
2095.010448  	94.016328 
2096.447355  	93.979114 
2097.884262  	93.962457 
2099.321169  	93.966089 
2100.758076  	93.953768 
2102.194983  	93.977102 
2103.631890  	94.015057 
2105.068797  	94.039161 
2106.505704  	93.974387 
2107.942611  	93.860197 
2109.379518  	93.865424 
2110.816425  	93.935038 
2112.253332  	93.989830 
2113.690239  	93.963321 
2115.127147  	93.870339 
2116.564054  	93.934582 
2118.000961  	93.988409 
2119.437868  	93.907719 
2120.874775  	93.953851 
2122.311682  	93.957373 
2123.748589  	93.879780 
2125.185496  	93.957552 
2126.622403  	94.005418 
2128.059310  	94.043945 
2129.496217  	94.086176 
2130.933124  	94.039299 
2132.370031  	94.245446 
2133.806938  	94.389723 
2135.243845  	94.135398 
2136.680752  	94.050933 
2138.117659  	93.998765 
2139.554566  	93.875918 
2140.991473  	94.091465 
2142.428380  	94.261364 
2143.865287  	94.255287 
2145.302194  	94.272831 
2146.739101  	94.191996 
2148.176008  	94.182938 
2149.612915  	94.211070 
2151.049822  	94.220743 
2152.486729  	94.326027 
2153.923636  	94.369131 
2155.360543  	94.521983 
2156.797450  	94.670686 
2158.234357  	94.464810 
2159.671264  	94.219336 
2161.108171  	94.015961 
2162.545078  	94.029025 
2163.981985  	94.140423 
2165.418893  	94.005528 
2166.855800  	94.090714 
2168.292707  	94.289515 
2169.729614  	94.236856 
2171.166521  	94.260320 
2172.603428  	94.207493 
2174.040335  	94.137937 
2175.477242  	94.275818 
2176.914149  	94.310253 
2178.351056  	94.439066 
2179.787963  	94.515162 
2181.224870  	94.224215 
2182.661777  	94.115903 
2184.098684  	94.120002 
2185.535591  	94.053744 
2186.972498  	94.104418 
2188.409405  	94.053404 
2189.846312  	94.148130 
2191.283219  	94.382009 
2192.720126  	94.305126 
2194.157033  	94.296884 
2195.593940  	94.345760 
2197.030847  	94.212539 
2198.467754  	94.212268 
2199.904661  	94.237972 
2201.341568  	94.278098 
2202.778475  	94.372546 
2204.215382  	94.239607 
2205.652289  	94.216679 
2207.089196  	94.434797 
2208.526103  	94.516591 
2209.963010  	94.500433 
2211.399917  	94.430622 
2212.836824  	94.358214 
2214.273732  	94.354543 
2215.710639  	94.365119 
2217.147546  	94.452305 
2218.584453  	94.513486 
2220.021360  	94.560476 
2221.458267  	94.675815 
2222.895174  	94.599470 
2224.332081  	94.519059 
2225.768988  	94.591556 
2227.205895  	94.544600 
2228.642802  	94.511464 
2230.079709  	94.500145 
2231.516616  	94.478097 
2232.953523  	94.681454 
2234.390430  	94.829905 
2235.827337  	94.768899 
2237.264244  	94.666906 
2238.701151  	94.505723 
2240.138058  	94.530700 
2241.574965  	94.741342 
2243.011872  	94.819615 
2244.448779  	94.808116 
2245.885686  	94.757304 
2247.322593  	94.811436 
2248.759500  	94.960533 
2250.196407  	94.891265 
2251.633314  	94.813674 
2253.070221  	94.855646 
2254.507128  	94.860365 
2255.944035  	95.015106 
2257.380942  	95.159001 
2258.817849  	95.095211 
2260.254756  	95.056577 
2261.691663  	95.037402 
2263.128570  	95.046461 
2264.565478  	95.073682 
2266.002385  	94.972291 
2267.439292  	94.967859 
2268.876199  	95.113519 
2270.313106  	95.171775 
2271.750013  	95.174879 
2273.186920  	95.145043 
2274.623827  	95.072039 
2276.060734  	95.011650 
2277.497641  	95.003454 
2278.934548  	95.099097 
2280.371455  	95.212555 
2281.808362  	95.262506 
2283.245269  	95.253072 
2284.682176  	95.170433 
2286.119083  	95.140549 
2287.555990  	95.173634 
2288.992897  	95.171755 
2290.429804  	95.216618 
2291.866711  	95.267486 
2293.303618  	95.264101 
2294.740525  	95.307445 
2296.177432  	95.357589 
2297.614339  	95.370428 
2299.051246  	95.376725 
2300.488153  	95.379570 
2301.925060  	95.402959 
2303.361967  	95.398239 
2304.798874  	95.397816 
2306.235781  	95.442236 
2307.672688  	95.406241 
2309.109595  	95.362753 
2310.546502  	95.372255 
2311.983409  	95.337614 
2313.420317  	95.372698 
2314.857224  	95.440353 
2316.294131  	95.435567 
2317.731038  	95.450070 
2319.167945  	95.371475 
2320.604852  	95.253593 
2322.041759  	95.260430 
2323.478666  	95.222028 
2324.915573  	95.271824 
2326.352480  	95.474937 
2327.789387  	95.543042 
2329.226294  	95.587296 
2330.663201  	95.703297 
2332.100108  	95.671732 
2333.537015  	95.596978 
2334.973922  	95.593112 
2336.410829  	95.608676 
2337.847736  	95.660511 
2339.284643  	95.708568 
2340.721550  	95.732450 
2342.158457  	95.717977 
2343.595364  	95.676001 
2345.032271  	95.659267 
2346.469178  	95.661243 
2347.906085  	95.750504 
2349.342992  	95.867926 
2350.779899  	95.901407 
2352.216806  	95.925847 
2353.653713  	95.970790 
2355.090620  	95.917384 
2356.527527  	95.922436 
2357.964434  	96.033855 
2359.401341  	96.069188 
2360.838248  	96.074092 
2362.275155  	96.055986 
2363.712063  	95.973781 
2365.148970  	95.950227 
2366.585877  	96.047247 
2368.022784  	96.101844 
2369.459691  	96.028786 
2370.896598  	96.011425 
2372.333505  	96.061210 
2373.770412  	96.066054 
2375.207319  	96.100279 
2376.644226  	96.152363 
2378.081133  	96.156370 
2379.518040  	96.155294 
2380.954947  	96.168188 
2382.391854  	96.211529 
2383.828761  	96.261718 
2385.265668  	96.277546 
2386.702575  	96.291621 
2388.139482  	96.291545 
2389.576389  	96.299108 
2391.013296  	96.359637 
2392.450203  	96.379860 
2393.887110  	96.355289 
2395.324017  	96.349491 
2396.760924  	96.330601 
2398.197831  	96.338984 
2399.634738  	96.359270 
2401.071645  	96.316764 
2402.508552  	96.295001 
2403.945459  	96.331205 
2405.382366  	96.355274 
2406.819273  	96.337628 
2408.256180  	96.316850 
2409.693087  	96.349177 
2411.129994  	96.357104 
2412.566901  	96.323211 
2414.003809  	96.360933 
2415.440716  	96.407622 
2416.877623  	96.415377 
2418.314530  	96.432988 
2419.751437  	96.425151 
2421.188344  	96.444279 
2422.625251  	96.485082 
2424.062158  	96.457720 
2425.499065  	96.449517 
2426.935972  	96.475313 
2428.372879  	96.468699 
2429.809786  	96.456116 
2431.246693  	96.433343 
2432.683600  	96.452800 
2434.120507  	96.532084 
2435.557414  	96.577280 
2436.994321  	96.596118 
2438.431228  	96.595714 
2439.868135  	96.588206 
2441.305042  	96.616689 
2442.741949  	96.615142 
2444.178856  	96.606394 
2445.615763  	96.639548 
2447.052670  	96.636491 
2448.489577  	96.609079 
2449.926484  	96.605857 
2451.363391  	96.628183 
2452.800298  	96.665006 
2454.237205  	96.692522 
2455.674112  	96.738941 
2457.111019  	96.727363 
2458.547926  	96.615381 
2459.984833  	96.601613 
2461.421740  	96.684278 
2462.858648  	96.707538 
2464.295555  	96.708139 
2465.732462  	96.704523 
2467.169369  	96.698739 
2468.606276  	96.712710 
2470.043183  	96.715735 
2471.480090  	96.726646 
2472.916997  	96.726700 
2474.353904  	96.727701 
2475.790811  	96.773491 
2477.227718  	96.773674 
2478.664625  	96.754944 
2480.101532  	96.773396 
2481.538439  	96.756798 
2482.975346  	96.758944 
2484.412253  	96.773376 
2485.849160  	96.757091 
2487.286067  	96.792844 
2488.722974  	96.809105 
2490.159881  	96.799812 
2491.596788  	96.855168 
2493.033695  	96.862517 
2494.470602  	96.826711 
2495.907509  	96.821922 
2497.344416  	96.807633 
2498.781323  	96.817275 
2500.218230  	96.817740 
2501.655137  	96.799566 
2503.092044  	96.837597 
2504.528951  	96.859854 
2505.965858  	96.866224 
2507.402765  	96.892698 
2508.839672  	96.870821 
2510.276579  	96.846602 
2511.713486  	96.847067 
2513.150394  	96.851569 
2514.587301  	96.871573 
2516.024208  	96.864934 
2517.461115  	96.881405 
2518.898022  	96.926481 
2520.334929  	96.907244 
2521.771836  	96.874938 
2523.208743  	96.851199 
2524.645650  	96.851410 
2526.082557  	96.899676 
2527.519464  	96.890890 
2528.956371  	96.891635 
2530.393278  	96.947597 
2531.830185  	96.930225 
2533.267092  	96.928710 
2534.703999  	96.953083 
2536.140906  	96.909053 
2537.577813  	96.905954 
2539.014720  	96.925229 
2540.451627  	96.930613 
2541.888534  	96.953689 
2543.325441  	96.903282 
2544.762348  	96.874294 
2546.199255  	96.935073 
2547.636162  	96.952516 
2549.073069  	96.964527 
2550.509976  	96.975998 
2551.946883  	96.959839 
2553.383790  	96.994578 
2554.820697  	96.987199 
2556.257604  	96.922010 
2557.694511  	96.930905 
2559.131418  	96.972874 
2560.568325  	96.988780 
2562.005232  	96.982073 
2563.442140  	96.979848 
2564.879047  	97.003044 
2566.315954  	96.989773 
2567.752861  	96.970151 
2569.189768  	96.971494 
2570.626675  	96.927199 
2572.063582  	96.908504 
2573.500489  	96.950754 
2574.937396  	96.970040 
2576.374303  	96.957722 
2577.811210  	96.932178 
2579.248117  	96.936685 
2580.685024  	96.962773 
2582.121931  	96.958422 
2583.558838  	96.972832 
2584.995745  	96.970263 
2586.432652  	96.917334 
2587.869559  	96.912542 
2589.306466  	96.916547 
2590.743373  	96.895266 
2592.180280  	96.915021 
2593.617187  	96.942805 
2595.054094  	96.963443 
2596.491001  	96.955369 
2597.927908  	96.895523 
2599.364815  	96.880527 
2600.801722  	96.907447 
2602.238629  	96.920574 
2603.675536  	96.944072 
2605.112443  	96.938687 
2606.549350  	96.912627 
2607.986257  	96.914086 
2609.423164  	96.896322 
2610.860071  	96.873095 
2612.296979  	96.900273 
2613.733886  	96.944809 
2615.170793  	96.949560 
2616.607700  	96.918285 
2618.044607  	96.909617 
2619.481514  	96.919579 
2620.918421  	96.911684 
2622.355328  	96.906438 
2623.792235  	96.897286 
2625.229142  	96.887281 
2626.666049  	96.910251 
2628.102956  	96.939346 
2629.539863  	96.944468 
2630.976770  	96.919470 
2632.413677  	96.891701 
2633.850584  	96.907037 
2635.287491  	96.922314 
2636.724398  	96.909190 
2638.161305  	96.909790 
2639.598212  	96.921221 
2641.035119  	96.940222 
2642.472026  	96.950608 
2643.908933  	96.923746 
2645.345840  	96.907718 
2646.782747  	96.913390 
2648.219654  	96.907265 
2649.656561  	96.905511 
2651.093468  	96.899866 
2652.530375  	96.881344 
2653.967282  	96.873503 
2655.404189  	96.876961 
2656.841096  	96.890206 
2658.278003  	96.901927 
2659.714910  	96.900173 
2661.151817  	96.901714 
2662.588725  	96.912116 
2664.025632  	96.925743 
2665.462539  	96.926785 
2666.899446  	96.913782 
2668.336353  	96.919648 
2669.773260  	96.933085 
2671.210167  	96.937575 
2672.647074  	96.948077 
2674.083981  	96.938270 
2675.520888  	96.917202 
2676.957795  	96.926083 
2678.394702  	96.934682 
2679.831609  	96.920851 
2681.268516  	96.902680 
2682.705423  	96.898156 
2684.142330  	96.916733 
2685.579237  	96.921686 
2687.016144  	96.899610 
2688.453051  	96.894700 
2689.889958  	96.905812 
2691.326865  	96.896560 
2692.763772  	96.869365 
2694.200679  	96.858934 
2695.637586  	96.872161 
2697.074493  	96.883589 
2698.511400  	96.893825 
2699.948307  	96.896417 
2701.385214  	96.878912 
2702.822121  	96.869570 
2704.259028  	96.868447 
2705.695935  	96.865584 
2707.132842  	96.864638 
2708.569749  	96.841803 
2710.006656  	96.826115 
2711.443564  	96.838628 
2712.880471  	96.826978 
2714.317378  	96.812288 
2715.754285  	96.828231 
2717.191192  	96.833883 
2718.628099  	96.817178 
2720.065006  	96.794079 
2721.501913  	96.783250 
2722.938820  	96.777451 
2724.375727  	96.754578 
2725.812634  	96.751217 
2727.249541  	96.761082 
2728.686448  	96.747393 
2730.123355  	96.738281 
2731.560262  	96.713469 
2732.997169  	96.676868 
2734.434076  	96.693633 
2735.870983  	96.717969 
2737.307890  	96.706407 
2738.744797  	96.682014 
2740.181704  	96.646066 
2741.618611  	96.636751 
2743.055518  	96.652421 
2744.492425  	96.645886 
2745.929332  	96.641910 
2747.366239  	96.640259 
2748.803146  	96.619822 
2750.240053  	96.600831 
2751.676960  	96.584779 
2753.113867  	96.576333 
2754.550774  	96.565098 
2755.987681  	96.543046 
2757.424588  	96.548987 
2758.861495  	96.562064 
2760.298402  	96.547158 
2761.735310  	96.522576 
2763.172217  	96.488811 
2764.609124  	96.470658 
2766.046031  	96.473651 
2767.482938  	96.453559 
2768.919845  	96.432245 
2770.356752  	96.423514 
2771.793659  	96.407086 
2773.230566  	96.400697 
2774.667473  	96.381625 
2776.104380  	96.343868 
2777.541287  	96.341182 
2778.978194  	96.351198 
2780.415101  	96.327297 
2781.852008  	96.290815 
2783.288915  	96.264949 
2784.725822  	96.242338 
2786.162729  	96.219238 
2787.599636  	96.213580 
2789.036543  	96.221030 
2790.473450  	96.209706 
2791.910357  	96.176415 
2793.347264  	96.135748 
2794.784171  	96.111412 
2796.221078  	96.112608 
2797.657985  	96.105358 
2799.094892  	96.086184 
2800.531799  	96.069199 
2801.968706  	96.042981 
2803.405613  	96.024259 
2804.842520  	96.010480 
2806.279427  	95.977181 
2807.716334  	95.950990 
2809.153241  	95.940978 
2810.590148  	95.920843 
2812.027056  	95.884288 
2813.463963  	95.843964 
2814.900870  	95.827830 
2816.337777  	95.824921 
2817.774684  	95.799773 
2819.211591  	95.769025 
2820.648498  	95.740724 
2822.085405  	95.704925 
2823.522312  	95.680179 
2824.959219  	95.660438 
2826.396126  	95.629907 
2827.833033  	95.598199 
2829.269940  	95.568977 
2830.706847  	95.548159 
2832.143754  	95.535895 
2833.580661  	95.514927 
2835.017568  	95.482211 
2836.454475  	95.446916 
2837.891382  	95.412896 
2839.328289  	95.375949 
2840.765196  	95.335294 
2842.202103  	95.297848 
2843.639010  	95.259604 
2845.075917  	95.227797 
2846.512824  	95.218635 
2847.949731  	95.202045 
2849.386638  	95.150723 
2850.823545  	95.100889 
2852.260452  	95.072331 
2853.697359  	95.034954 
2855.134266  	94.986813 
2856.571173  	94.945234 
2858.008080  	94.903097 
2859.444987  	94.870134 
2860.881895  	94.854660 
2862.318802  	94.829789 
2863.755709  	94.790178 
2865.192616  	94.745884 
2866.629523  	94.706528 
2868.066430  	94.688106 
2869.503337  	94.652990 
2870.940244  	94.589247 
2872.377151  	94.562585 
2873.814058  	94.551371 
2875.250965  	94.496275 
2876.687872  	94.432583 
2878.124779  	94.383468 
2879.561686  	94.336210 
2880.998593  	94.286817 
2882.435500  	94.229836 
2883.872407  	94.179753 
2885.309314  	94.134090 
2886.746221  	94.083325 
2888.183128  	94.040722 
2889.620035  	93.987788 
2891.056942  	93.924659 
2892.493849  	93.872676 
2893.930756  	93.809229 
2895.367663  	93.741388 
2896.804570  	93.687266 
2898.241477  	93.637043 
2899.678384  	93.595096 
2901.115291  	93.531755 
2902.552198  	93.451125 
2903.989105  	93.413956 
2905.426012  	93.382974 
2906.862919  	93.307620 
2908.299826  	93.212178 
2909.736733  	93.123293 
2911.173641  	93.075785 
2912.610548  	93.031647 
2914.047455  	92.932207 
2915.484362  	92.848407 
2916.921269  	92.799210 
2918.358176  	92.730524 
2919.795083  	92.673185 
2921.231990  	92.614331 
2922.668897  	92.518824 
2924.105804  	92.433630 
2925.542711  	92.361176 
2926.979618  	92.282179 
2928.416525  	92.219211 
2929.853432  	92.161120 
2931.290339  	92.079140 
2932.727246  	91.984752 
2934.164153  	91.917150 
2935.601060  	91.858449 
2937.037967  	91.762511 
2938.474874  	91.677468 
2939.911781  	91.618827 
2941.348688  	91.524011 
2942.785595  	91.426132 
2944.222502  	91.360203 
2945.659409  	91.285572 
2947.096316  	91.195185 
2948.533223  	91.087351 
2949.970130  	90.974691 
2951.407037  	90.882177 
2952.843944  	90.784221 
2954.280851  	90.687578 
2955.717758  	90.608703 
2957.154665  	90.528076 
2958.591572  	90.461115 
2960.028479  	90.387290 
2961.465387  	90.274026 
2962.902294  	90.147394 
2964.339201  	90.011733 
2965.776108  	89.899860 
2967.213015  	89.834309 
2968.649922  	89.745358 
2970.086829  	89.638267 
2971.523736  	89.539178 
2972.960643  	89.402272 
2974.397550  	89.267728 
2975.834457  	89.177487 
2977.271364  	89.080780 
2978.708271  	88.965410 
2980.145178  	88.848570 
2981.582085  	88.733039 
2983.018992  	88.610898 
2984.455899  	88.457538 
2985.892806  	88.284829 
2987.329713  	88.137795 
2988.766620  	88.026153 
2990.203527  	87.900727 
2991.640434  	87.748288 
2993.077341  	87.636082 
2994.514248  	87.540504 
2995.951155  	87.381425 
2997.388062  	87.199797 
2998.824969  	87.045237 
3000.261876  	86.912263 
3001.698783  	86.768415 
3003.135690  	86.581145 
3004.572597  	86.417275 
3006.009504  	86.295445 
3007.446411  	86.150097 
3008.883318  	86.009761 
3010.320226  	85.857028 
3011.757133  	85.655141 
3013.194040  	85.469326 
3014.630947  	85.305613 
3016.067854  	85.163609 
3017.504761  	85.018852 
3018.941668  	84.801789 
3020.378575  	84.601509 
3021.815482  	84.441388 
3023.252389  	84.241839 
3024.689296  	84.067094 
3026.126203  	83.904431 
3027.563110  	83.715727 
3029.000017  	83.557460 
3030.436924  	83.382585 
3031.873831  	83.195319 
3033.310738  	83.012835 
3034.747645  	82.779832 
3036.184552  	82.576775 
3037.621459  	82.397146 
3039.058366  	82.171203 
3040.495273  	81.973960 
3041.932180  	81.783603 
3043.369087  	81.584545 
3044.805994  	81.415718 
3046.242901  	81.209858 
3047.679808  	80.987041 
3049.116715  	80.763609 
3050.553622  	80.516968 
3051.990529  	80.316645 
3053.427436  	80.127337 
3054.864343  	79.918437 
3056.301250  	79.700950 
3057.738157  	79.434569 
3059.175064  	79.206460 
3060.611972  	78.988619 
3062.048879  	78.702504 
3063.485786  	78.479972 
3064.922693  	78.264984 
3066.359600  	77.981085 
3067.796507  	77.746310 
3069.233414  	77.522507 
3070.670321  	77.301899 
3072.107228  	77.081362 
3073.544135  	76.787426 
3074.981042  	76.527667 
3076.417949  	76.284540 
3077.854856  	75.990729 
3079.291763  	75.743600 
3080.728670  	75.487856 
3082.165577  	75.220280 
3083.602484  	74.992028 
3085.039391  	74.721086 
3086.476298  	74.445041 
3087.913205  	74.154090 
3089.350112  	73.853942 
3090.787019  	73.636084 
3092.223926  	73.358294 
3093.660833  	73.036955 
3095.097740  	72.799631 
3096.534647  	72.514378 
3097.971554  	72.202805 
3099.408461  	71.914739 
3100.845368  	71.610778 
3102.282275  	71.358118 
3103.719182  	71.076119 
3105.156089  	70.779856 
3106.592996  	70.540030 
3108.029903  	70.224601 
3109.466811  	69.914264 
3110.903718  	69.649782 
3112.340625  	69.320766 
3113.777532  	69.011436 
3115.214439  	68.690458 
3116.651346  	68.370247 
3118.088253  	68.117387 
3119.525160  	67.782194 
3120.962067  	67.458191 
3122.398974  	67.201955 
3123.835881  	66.869615 
3125.272788  	66.563520 
3126.709695  	66.272098 
3128.146602  	65.963362 
3129.583509  	65.704823 
3131.020416  	65.386428 
3132.457323  	65.080919 
3133.894230  	64.792938 
3135.331137  	64.427895 
3136.768044  	64.166034 
3138.204951  	63.892998 
3139.641858  	63.540756 
3141.078765  	63.307337 
3142.515672  	63.006444 
3143.952579  	62.642338 
3145.389486  	62.368521 
3146.826393  	62.051592 
3148.263300  	61.769551 
3149.700207  	61.489336 
3151.137114  	61.140324 
3152.574021  	60.878830 
3154.010928  	60.592207 
3155.447835  	60.312778 
3156.884742  	60.102146 
3158.321649  	59.772259 
3159.758557  	59.481248 
3161.195464  	59.234124 
3162.632371  	58.912468 
3164.069278  	58.683599 
3165.506185  	58.404537 
3166.943092  	58.079471 
3168.379999  	57.860574 
3169.816906  	57.566753 
3171.253813  	57.305116 
3172.690720  	57.085831 
3174.127627  	56.772856 
3175.564534  	56.544943 
3177.001441  	56.273019 
3178.438348  	55.960014 
3179.875255  	55.809433 
3181.312162  	55.598417 
3182.749069  	55.356496 
3184.185976  	55.120288 
3185.622883  	54.802201 
3187.059790  	54.616459 
3188.496697  	54.416441 
3189.933604  	54.150184 
3191.370511  	54.001770 
3192.807418  	53.755379 
3194.244325  	53.521800 
3195.681232  	53.378008 
3197.118139  	53.123554 
3198.555046  	52.982591 
3199.991953  	52.856087 
3201.428860  	52.613586 
3202.865767  	52.482464 
3204.302674  	52.283765 
3205.739581  	52.064676 
3207.176488  	51.955181 
3208.613395  	51.757018 
3210.050303  	51.608640 
3211.487210  	51.455204 
3212.924117  	51.231426 
3214.361024  	51.159534 
3215.797931  	51.022850 
3217.234838  	50.841754 
3218.671745  	50.757613 
3220.108652  	50.579881 
3221.545559  	50.495143 
3222.982466  	50.453627 
3224.419373  	50.281380 
3225.856280  	50.209018 
3227.293187  	50.121475 
3228.730094  	50.010056 
3230.167001  	49.961187 
3231.603908  	49.779101 
3233.040815  	49.662129 
3234.477722  	49.618409 
3235.914629  	49.513783 
3237.351536  	49.527296 
3238.788443  	49.472928 
3240.225350  	49.385500 
3241.662257  	49.398284 
3243.099164  	49.268604 
3244.536071  	49.210030 
3245.972978  	49.213636 
3247.409885  	49.072942 
3248.846792  	49.075864 
3250.283699  	49.055585 
3251.720606  	48.951182 
3253.157513  	49.008638 
3254.594420  	48.978277 
3256.031327  	48.909721 
3257.468234  	48.880145 
3258.905142  	48.777932 
3260.342049  	48.833763 
3261.778956  	48.856619 
3263.215863  	48.755589 
3264.652770  	48.777145 
3266.089677  	48.737197 
3267.526584  	48.725882 
3268.963491  	48.758982 
3270.400398  	48.637812 
3271.837305  	48.670313 
3273.274212  	48.735260 
3274.711119  	48.654635 
3276.148026  	48.692396 
3277.584933  	48.665249 
3279.021840  	48.614023 
3280.458747  	48.664268 
3281.895654  	48.607129 
3283.332561  	48.628714 
3284.769468  	48.673013 
3286.206375  	48.596280 
3287.643282  	48.623388 
3289.080189  	48.605632 
3290.517096  	48.551225 
3291.954003  	48.574957 
3293.390910  	48.521493 
3294.827817  	48.536851 
3296.264724  	48.535438 
3297.701631  	48.465764 
3299.138538  	48.569759 
3300.575445  	48.577480 
3302.012352  	48.487306 
3303.449259  	48.496130 
3304.886166  	48.424296 
3306.323073  	48.436598 
3307.759980  	48.513484 
3309.196888  	48.493668 
3310.633795  	48.545813 
3312.070702  	48.513456 
3313.507609  	48.463707 
3314.944516  	48.529152 
3316.381423  	48.459725 
3317.818330  	48.453043 
3319.255237  	48.526319 
3320.692144  	48.496583 
3322.129051  	48.559061 
3323.565958  	48.546807 
3325.002865  	48.466367 
3326.439772  	48.496075 
3327.876679  	48.426034 
3329.313586  	48.434658 
3330.750493  	48.515946 
3332.187400  	48.460413 
3333.624307  	48.508005 
3335.061214  	48.532292 
3336.498121  	48.507488 
3337.935028  	48.578319 
3339.371935  	48.489339 
3340.808842  	48.459398 
3342.245749  	48.550872 
3343.682656  	48.516914 
3345.119563  	48.598248 
3346.556470  	48.660056 
3347.993377  	48.642707 
3349.430284  	48.763314 
3350.867191  	48.751361 
3352.304098  	48.753867 
3353.741005  	48.872461 
3355.177912  	48.842924 
3356.614819  	48.908183 
3358.051726  	48.953572 
3359.488634  	48.900612 
3360.925541  	49.068654 
3362.362448  	49.150375 
3363.799355  	49.139222 
3365.236262  	49.224834 
3366.673169  	49.188466 
3368.110076  	49.245141 
3369.546983  	49.350814 
3370.983890  	49.352674 
3372.420797  	49.506885 
3373.857704  	49.615395 
3375.294611  	49.671435 
3376.731518  	49.807579 
3378.168425  	49.818222 
3379.605332  	49.930266 
3381.042239  	50.102379 
3382.479146  	50.121299 
3383.916053  	50.245420 
3385.352960  	50.375147 
3386.789867  	50.504158 
3388.226774  	50.700879 
3389.663681  	50.706372 
3391.100588  	50.768591 
3392.537495  	50.979148 
3393.974402  	51.120864 
3395.411309  	51.300179 
3396.848216  	51.397702 
3398.285123  	51.483595 
3399.722030  	51.676577 
3401.158937  	51.758022 
3402.595844  	51.924915 
3404.032751  	52.136835 
3405.469658  	52.227833 
3406.906565  	52.457367 
3408.343473  	52.645568 
3409.780380  	52.775346 
3411.217287  	53.002881 
3412.654194  	53.091239 
3414.091101  	53.261078 
3415.528008  	53.528919 
3416.964915  	53.648793 
3418.401822  	53.880414 
3419.838729  	54.083602 
3421.275636  	54.184153 
3422.712543  	54.420938 
3424.149450  	54.583810 
3425.586357  	54.787689 
3427.023264  	55.067331 
3428.460171  	55.213652 
3429.897078  	55.434006 
3431.333985  	55.596183 
3432.770892  	55.707808 
3434.207799  	56.014056 
3435.644706  	56.181457 
3437.081613  	56.325846 
3438.518520  	56.640750 
3439.955427  	56.843331 
3441.392334  	57.082719 
3442.829241  	57.323044 
3444.266148  	57.445422 
3445.703055  	57.689488 
3447.139962  	57.930632 
3448.576869  	58.164330 
3450.013776  	58.412927 
3451.450683  	58.538063 
3452.887590  	58.769321 
3454.324497  	59.033112 
3455.761404  	59.219236 
3457.198311  	59.493122 
3458.635219  	59.663261 
3460.072126  	59.829105 
3461.509033  	60.095754 
3462.945940  	60.222736 
3464.382847  	60.427252 
3465.819754  	60.706034 
3467.256661  	60.898994 
3468.693568  	61.157122 
3470.130475  	61.341286 
3471.567382  	61.519803 
3473.004289  	61.793996 
3474.441196  	61.987064 
3475.878103  	62.273537 
3477.315010  	62.548424 
3478.751917  	62.681066 
3480.188824  	62.921808 
3481.625731  	63.110361 
3483.062638  	63.303511 
3484.499545  	63.625778 
3485.936452  	63.754873 
3487.373359  	63.905971 
3488.810266  	64.205902 
3490.247173  	64.431064 
3491.684080  	64.701635 
3493.120987  	64.918081 
3494.557894  	65.096901 
3495.994801  	65.398340 
3497.431708  	65.601783 
3498.868615  	65.788678 
3500.305522  	66.033111 
3501.742429  	66.209055 
3503.179336  	66.456152 
3504.616243  	66.709070 
3506.053150  	66.924971 
3507.490058  	67.133173 
3508.926965  	67.246488 
3510.363872  	67.507045 
3511.800779  	67.816132 
3513.237686  	67.964139 
3514.674593  	68.228995 
3516.111500  	68.493923 
3517.548407  	68.702335 
3518.985314  	69.000062 
3520.422221  	69.178282 
3521.859128  	69.375784 
3523.296035  	69.663886 
3524.732942  	69.826050 
3526.169849  	70.066244 
3527.606756  	70.335313 
3529.043663  	70.533053 
3530.480570  	70.776699 
3531.917477  	70.951347 
3533.354384  	71.183933 
3534.791291  	71.456271 
3536.228198  	71.623744 
3537.665105  	71.921955 
3539.102012  	72.203794 
3540.538919  	72.377667 
3541.975826  	72.628111 
3543.412733  	72.820135 
3544.849640  	72.999446 
3546.286547  	73.249524 
3547.723454  	73.455674 
3549.160361  	73.719511 
3550.597268  	73.946933 
3552.034175  	74.079553 
3553.471082  	74.329132 
3554.907989  	74.605420 
3556.344896  	74.831319 
3557.781804  	75.116797 
3559.218711  	75.357112 
3560.655618  	75.558508 
3562.092525  	75.664043 
3563.529432  	75.755017 
3564.966339  	76.047064 
3566.403246  	76.280545 
3567.840153  	76.470835 
3569.277060  	76.776471 
3570.713967  	76.925460 
3572.150874  	77.150103 
3573.587781  	77.433515 
3575.024688  	77.596751 
3576.461595  	77.832610 
3577.898502  	78.065121 
3579.335409  	78.253271 
3580.772316  	78.505884 
3582.209223  	78.682957 
3583.646130  	78.884737 
3585.083037  	79.116670 
3586.519944  	79.266213 
3587.956851  	79.482718 
3589.393758  	79.632570 
3590.830665  	79.823100 
3592.267572  	80.105276 
3593.704479  	80.218107 
3595.141386  	80.360292 
3596.578293  	80.624834 
3598.015200  	80.777991 
3599.452107  	81.042069 
3600.889014  	81.316572 
3602.325921  	81.443985 
3603.762828  	81.656738 
3605.199735  	81.887101 
3606.636642  	82.099129 
3608.073550  	82.275630 
3609.510457  	82.351365 
3610.947364  	82.585718 
3612.384271  	82.829561 
3613.821178  	82.951569 
3615.258085  	83.123125 
3616.694992  	83.301902 
3618.131899  	83.552590 
3619.568806  	83.822370 
3621.005713  	83.940142 
3622.442620  	84.220892 
3623.879527  	84.461312 
3625.316434  	84.549436 
3626.753341  	84.754540 
3628.190248  	84.969957 
3629.627155  	85.076238 
3631.064062  	85.320035 
3632.500969  	85.611922 
3633.937876  	85.862432 
3635.374783  	86.044471 
3636.811690  	86.272128 
3638.248597  	86.554327 
3639.685504  	86.752188 
3641.122411  	87.038548 
3642.559318  	87.337156 
3643.996225  	87.479234 
3645.433132  	87.792779 
3646.870039  	88.151741 
3648.306946  	88.259735 
3649.743853  	88.490229 
3651.180760  	88.626043 
3652.617667  	88.749482 
3654.054574  	89.160861 
3655.491481  	89.453789 
3656.928389  	89.560771 
3658.365296  	89.747987 
3659.802203  	90.102646 
3661.239110  	90.503052 
3662.676017  	90.790244 
3664.112924  	91.124288 
3665.549831  	91.360097 
3666.986738  	91.488901 
3668.423645  	91.660557 
3669.860552  	91.858166 
3671.297459  	91.828762 
3672.734366  	92.000483 
3674.171273  	92.385660 
3675.608180  	92.452794 
3677.045087  	92.292170 
3678.481994  	92.622033 
3679.918901  	93.008494 
3681.355808  	93.206445 
3682.792715  	93.439794 
3684.229622  	93.619949 
3685.666529  	93.716011 
3687.103436  	93.981577 
3688.540343  	94.252446 
3689.977250  	94.242325 
3691.414157  	94.358756 
3692.851064  	94.462739 
3694.287971  	94.499138 
3695.724878  	94.644184 
3697.161785  	94.737242 
3698.598692  	94.830215 
3700.035599  	94.982942 
3701.472506  	95.011459 
3702.909413  	95.009173 
3704.346320  	95.070190 
3705.783227  	95.234212 
3707.220135  	95.459190 
3708.657042  	95.516664 
3710.093949  	95.452851 
3711.530856  	95.442545 
3712.967763  	95.191774 
3714.404670  	95.195877 
3715.841577  	95.484551 
3717.278484  	95.622151 
3718.715391  	95.621651 
3720.152298  	95.652889 
3721.589205  	95.718980 
3723.026112  	95.782528 
3724.463019  	95.834823 
3725.899926  	95.935532 
3727.336833  	95.850600 
3728.773740  	95.748721 
3730.210647  	95.960868 
3731.647554  	96.132408 
3733.084461  	96.067554 
3734.521368  	96.052728 
3735.958275  	95.897306 
3737.395182  	95.858167 
3738.832089  	96.017376 
3740.268996  	96.080635 
3741.705903  	96.169688 
3743.142810  	96.481774 
3744.579717  	96.476915 
3746.016624  	96.103513 
3747.453531  	96.293537 
3748.890438  	96.538837 
3750.327345  	96.558660 
3751.764252  	96.492576 
3753.201159  	96.450611 
3754.638066  	96.514781 
3756.074973  	96.684489 
3757.511881  	96.782253 
3758.948788  	96.823695 
3760.385695  	96.847813 
3761.822602  	96.844122 
3763.259509  	96.952176 
3764.696416  	97.028778 
3766.133323  	96.906616 
3767.570230  	96.925925 
3769.007137  	97.086537 
3770.444044  	97.024324 
3771.880951  	96.916309 
3773.317858  	96.995493 
3774.754765  	97.020065 
3776.191672  	97.007621 
3777.628579  	97.072549 
3779.065486  	97.085527 
3780.502393  	96.938733 
3781.939300  	96.922731 
3783.376207  	97.046072 
3784.813114  	97.040173 
3786.250021  	96.973886 
3787.686928  	97.030598 
3789.123835  	97.052338 
3790.560742  	97.057309 
3791.997649  	97.131419 
3793.434556  	97.146268 
3794.871463  	97.160141 
3796.308370  	97.152892 
3797.745277  	97.009655 
3799.182184  	97.053817 
3800.619091  	97.231129 
3802.055998  	97.094089 
3803.492905  	96.785797 
3804.929812  	96.962224 
3806.366720  	97.141145 
3807.803627  	97.019312 
3809.240534  	96.973331 
3810.677441  	97.137624 
3812.114348  	97.182955 
3813.551255  	97.224150 
3814.988162  	97.351692 
3816.425069  	97.186690 
3817.861976  	96.944164 
3819.298883  	97.168562 
3820.735790  	97.282122 
3822.172697  	96.971570 
3823.609604  	96.960394 
3825.046511  	97.185764 
3826.483418  	97.243457 
3827.920325  	97.109220 
3829.357232  	97.134728 
3830.794139  	97.244987 
3832.231046  	97.219308 
3833.667953  	97.191502 
3835.104860  	97.207918 
3836.541767  	97.206452 
3837.978674  	97.229418 
3839.415581  	97.165932 
3840.852488  	97.134101 
3842.289395  	97.232935 
3843.726302  	97.232329 
3845.163209  	97.132637 
3846.600116  	97.158460 
3848.037023  	97.236668 
3849.473930  	97.249954 
3850.910837  	97.288856 
3852.347744  	97.438911 
3853.784651  	97.364045 
3855.221558  	96.967746 
3856.658466  	97.097940 
3858.095373  	97.213791 
3859.532280  	97.247721 
3860.969187  	97.296465 
3862.406094  	97.285617 
3863.843001  	97.253523 
3865.279908  	97.174083 
3866.716815  	97.068158 
3868.153722  	97.261428 
3869.590629  	97.401810 
3871.027536  	97.086211 
3872.464443  	97.154559 
3873.901350  	97.365467 
3875.338257  	97.221633 
3876.775164  	97.176688 
3878.212071  	97.333810 
3879.648978  	97.395221 
3881.085885  	97.270083 
3882.522792  	97.140965 
3883.959699  	97.269323 
3885.396606  	97.363464 
3886.833513  	97.166746 
3888.270420  	97.164138 
3889.707327  	97.321369 
3891.144234  	97.328428 
3892.581141  	97.172604 
3894.018048  	97.146174 
3895.454955  	97.221630 
3896.891862  	97.290577 
3898.328769  	97.294042 
3899.765676  	97.248522 
3901.202583  	97.175337 
3902.639490  	97.200413 
3904.076397  	97.224063 
3905.513305  	97.102909 
3906.950212  	97.082178 
3908.387119  	97.144328 
3909.824026  	97.178150 
3911.260933  	97.244800 
3912.697840  	97.268048 
3914.134747  	97.275027 
3915.571654  	97.320315 
3917.008561  	97.297663 
3918.445468  	97.259471 
3919.882375  	97.278503 
3921.319282  	97.252958 
3922.756189  	97.284657 
3924.193096  	97.320653 
3925.630003  	97.217364 
3927.066910  	97.202425 
3928.503817  	97.277381 
3929.940724  	97.283960 
3931.377631  	97.264999 
3932.814538  	97.263324 
3934.251445  	97.244520 
3935.688352  	97.282581 
3937.125259  	97.341841 
3938.562166  	97.355846 
3939.999073  	97.312230 
3941.435980  	97.333758 
3942.872887  	97.319294 
3944.309794  	97.183856 
3945.746701  	97.241428 
3947.183608  	97.382267 
3948.620515  	97.306923 
3950.057422  	97.206185 
3951.494329  	97.230231 
3952.931236  	97.250840 
3954.368143  	97.290037 
3955.805051  	97.319835 
3957.241958  	97.326860 
3958.678865  	97.352664 
3960.115772  	97.348096 
3961.552679  	97.313460 
3962.989586  	97.276308 
3964.426493  	97.276247 
3965.863400  	97.316143 
3967.300307  	97.317317 
3968.737214  	97.306880 
3970.174121  	97.309038 
3971.611028  	97.285241 
3973.047935  	97.301265 
3974.484842  	97.331026 
3975.921749  	97.310244 
3977.358656  	97.308059 
3978.795563  	97.317528 
3980.232470  	97.305355 
3981.669377  	97.296552 
3983.106284  	97.302263 
3984.543191  	97.325821 
3985.980098  	97.334362 
3987.417005  	97.353986 
3988.853912  	97.398520 
3990.290819  	97.362172 
3991.727726  	97.285183 
3993.164633  	97.280900 
3994.601540  	97.307964 
3996.038447  	97.335415 
3997.475354  	97.338229 
3998.912261  	97.320535 
4000.349168  	97.339167 