##TITLE=No Description
##DATA TYPE=INFRARED SPECTRUM
##XUNITS=1/CM
##YUNITS=%T
399.460154  	35.218157 
400.897061  	32.281269 
402.333968  	32.499487 
403.770875  	31.833838 
405.207782  	31.844874 
406.644689  	32.713286 
408.081596  	31.560814 
409.518503  	32.516430 
410.955410  	33.099106 
412.392317  	31.785903 
413.829224  	32.395529 
415.266131  	31.931558 
416.703038  	31.437800 
418.139945  	33.204248 
419.576852  	32.542244 
421.013759  	32.881101 
422.450666  	33.073874 
423.887574  	31.627973 
425.324481  	31.345936 
426.761388  	30.729434 
428.198295  	30.694972 
429.635202  	31.776307 
431.072109  	31.200111 
432.509016  	31.342281 
433.945923  	32.020914 
435.382830  	31.508686 
436.819737  	32.110930 
438.256644  	32.019035 
439.693551  	31.281110 
441.130458  	31.765580 
442.567365  	32.002010 
444.004272  	32.806304 
445.441179  	33.058025 
446.878086  	32.016135 
448.314993  	32.327512 
449.751900  	32.293555 
451.188807  	31.754490 
452.625714  	32.190913 
454.062621  	31.563309 
455.499528  	31.458336 
456.936435  	32.488727 
458.373342  	32.425533 
459.810249  	32.440687 
461.247156  	32.257331 
462.684063  	32.085567 
464.120970  	32.653132 
465.557877  	32.144859 
466.994784  	32.017942 
468.431691  	32.603561 
469.868598  	32.251181 
471.305505  	32.423393 
472.742413  	32.556171 
474.179320  	32.083811 
475.616227  	32.240912 
477.053134  	32.086757 
478.490041  	32.284351 
479.926948  	32.637237 
481.363855  	32.405355 
482.800762  	32.913545 
484.237669  	32.826387 
485.674576  	31.993432 
487.111483  	32.267367 
488.548390  	32.084569 
489.985297  	31.914669 
491.422204  	32.590894 
492.859111  	32.368161 
494.296018  	32.358810 
495.732925  	32.779979 
497.169832  	32.433969 
498.606739  	32.287157 
500.043646  	32.308124 
501.480553  	32.262938 
502.917460  	32.520889 
504.354367  	32.468041 
505.791274  	32.604206 
507.228181  	32.972072 
508.665088  	32.904704 
510.101995  	32.875550 
511.538902  	32.835693 
512.975809  	32.931433 
514.412716  	33.184187 
515.849623  	32.931092 
517.286530  	32.800420 
518.723437  	33.048395 
520.160344  	33.095400 
521.597251  	33.259453 
523.034159  	33.250912 
524.471066  	33.103899 
525.907973  	33.203870 
527.344880  	33.166636 
528.781787  	33.285849 
530.218694  	33.491549 
531.655601  	33.373947 
533.092508  	33.502511 
534.529415  	33.767203 
535.966322  	33.779556 
537.403229  	33.794481 
538.840136  	33.782958 
540.277043  	33.872517 
541.713950  	34.026141 
543.150857  	34.043713 
544.587764  	34.109120 
546.024671  	34.067621 
547.461578  	34.069268 
548.898485  	34.332697 
550.335392  	34.444032 
551.772299  	34.528899 
553.209206  	34.665958 
554.646113  	34.630125 
556.083020  	34.670842 
557.519927  	34.731063 
558.956834  	34.768379 
560.393741  	34.892829 
561.830648  	34.934496 
563.267555  	35.092862 
564.704462  	35.293221 
566.141369  	35.305094 
567.578276  	35.469549 
569.015183  	35.585443 
570.452090  	35.476896 
571.888997  	35.511724 
573.325905  	35.618199 
574.762812  	35.798663 
576.199719  	36.034281 
577.636626  	36.066013 
579.073533  	36.145407 
580.510440  	36.279252 
581.947347  	36.255389 
583.384254  	36.309647 
584.821161  	36.492275 
586.258068  	36.704538 
587.694975  	36.863862 
589.131882  	36.883533 
590.568789  	36.884803 
592.005696  	36.944723 
593.442603  	37.091408 
594.879510  	37.273705 
596.316417  	37.319494 
597.753324  	37.386096 
599.190231  	37.557212 
600.627138  	37.668802 
602.064045  	37.795657 
603.500952  	37.911174 
604.937859  	38.015656 
606.374766  	38.174979 
607.811673  	38.281260 
609.248580  	38.356651 
610.685487  	38.554086 
612.122394  	38.757773 
613.559301  	38.929417 
614.996208  	39.026609 
616.433115  	39.096666 
617.870022  	39.247716 
619.306929  	39.411096 
620.743836  	39.586105 
622.180744  	39.736860 
623.617651  	39.805340 
625.054558  	39.955620 
626.491465  	40.156834 
627.928372  	40.264280 
629.365279  	40.385914 
630.802186  	40.539111 
632.239093  	40.684833 
633.676000  	40.820988 
635.112907  	40.889110 
636.549814  	41.003359 
637.986721  	41.166128 
639.423628  	41.324539 
640.860535  	41.525393 
642.297442  	41.660577 
643.734349  	41.786675 
645.171256  	41.947493 
646.608163  	42.104187 
648.045070  	42.297005 
649.481977  	42.451107 
650.918884  	42.536397 
652.355791  	42.730283 
653.792698  	42.951608 
655.229605  	43.122327 
656.666512  	43.293250 
658.103419  	43.409295 
659.540326  	43.570735 
660.977233  	43.789792 
662.414140  	43.936949 
663.851047  	44.080492 
665.287954  	44.163176 
666.724861  	44.242603 
668.161768  	44.540456 
669.598675  	44.817961 
671.035582  	44.921365 
672.472490  	45.093850 
673.909397  	45.301716 
675.346304  	45.484381 
676.783211  	45.679742 
678.220118  	45.862980 
679.657025  	46.039098 
681.093932  	46.213966 
682.530839  	46.398258 
683.967746  	46.586827 
685.404653  	46.792136 
686.841560  	46.987802 
688.278467  	47.142499 
689.715374  	47.322076 
691.152281  	47.548406 
692.589188  	47.713745 
694.026095  	47.878173 
695.463002  	48.107048 
696.899909  	48.311742 
698.336816  	48.511909 
699.773723  	48.722254 
701.210630  	48.896229 
702.647537  	49.077081 
704.084444  	49.315736 
705.521351  	49.526673 
706.958258  	49.741550 
708.395165  	49.947856 
709.832072  	50.143439 
711.268979  	50.337559 
712.705886  	50.519138 
714.142793  	50.747645 
715.579700  	50.992083 
717.016607  	51.184829 
718.453514  	51.369217 
719.890421  	51.550498 
721.327328  	51.763717 
722.764236  	51.999401 
724.201143  	52.214869 
725.638050  	52.406670 
727.074957  	52.586577 
728.511864  	52.761375 
729.948771  	53.017923 
731.385678  	53.359355 
732.822585  	53.617217 
734.259492  	53.725216 
735.696399  	53.878887 
737.133306  	54.142135 
738.570213  	54.343170 
740.007120  	54.538508 
741.444027  	54.826724 
742.880934  	55.085597 
744.317841  	55.315511 
745.754748  	55.547296 
747.191655  	55.756362 
748.628562  	56.018547 
750.065469  	56.282386 
751.502376  	56.468402 
752.939283  	56.647650 
754.376190  	56.855362 
755.813097  	57.117524 
757.250004  	57.387764 
758.686911  	57.564898 
760.123818  	57.735061 
761.560725  	58.002355 
762.997632  	58.329162 
764.434539  	58.603591 
765.871446  	58.794437 
767.308353  	59.052629 
768.745260  	59.341756 
770.182167  	59.517075 
771.619075  	59.718841 
773.055982  	59.980328 
774.492889  	60.210249 
775.929796  	60.457333 
777.366703  	60.674507 
778.803610  	60.880836 
780.240517  	61.154623 
781.677424  	61.410549 
783.114331  	61.674585 
784.551238  	61.945827 
785.988145  	62.142955 
787.425052  	62.362978 
788.861959  	62.613542 
790.298866  	62.868417 
791.735773  	63.153906 
793.172680  	63.365555 
794.609587  	63.557764 
796.046494  	63.817884 
797.483401  	64.064631 
798.920308  	64.329224 
800.357215  	64.581398 
801.794122  	64.786541 
803.231029  	65.049128 
804.667936  	65.310916 
806.104843  	65.555932 
807.541750  	65.829752 
808.978657  	66.052613 
810.415564  	66.299844 
811.852471  	66.584749 
813.289378  	66.815080 
814.726285  	67.085170 
816.163192  	67.351874 
817.600099  	67.550070 
819.037006  	67.800006 
820.473913  	68.065392 
821.910821  	68.287379 
823.347728  	68.502340 
824.784635  	68.744383 
826.221542  	69.049804 
827.658449  	69.316717 
829.095356  	69.538997 
830.532263  	69.814683 
831.969170  	70.051687 
833.406077  	70.276392 
834.842984  	70.546060 
836.279891  	70.770422 
837.716798  	71.020380 
839.153705  	71.281100 
840.590612  	71.482793 
842.027519  	71.736148 
843.464426  	71.989663 
844.901333  	72.221041 
846.338240  	72.513071 
847.775147  	72.770105 
849.212054  	73.013339 
850.648961  	73.277603 
852.085868  	73.494021 
853.522775  	73.757238 
854.959682  	74.045073 
856.396589  	74.265783 
857.833496  	74.482236 
859.270403  	74.692148 
860.707310  	74.917315 
862.144217  	75.166727 
863.581124  	75.392351 
865.018031  	75.656345 
866.454938  	75.906084 
867.891845  	76.094043 
869.328752  	76.322132 
870.765660  	76.559485 
872.202567  	76.796137 
873.639474  	77.052260 
875.076381  	77.270604 
876.513288  	77.484061 
877.950195  	77.664160 
879.387102  	77.831394 
880.824009  	78.095685 
882.260916  	78.343507 
883.697823  	78.525324 
885.134730  	78.714523 
886.571637  	78.906889 
888.008544  	79.150607 
889.445451  	79.366473 
890.882358  	79.518794 
892.319265  	79.750934 
893.756172  	79.967850 
895.193079  	80.130625 
896.629986  	80.346409 
898.066893  	80.521872 
899.503800  	80.676960 
900.940707  	80.869375 
902.377614  	81.031902 
903.814521  	81.211942 
905.251428  	81.392386 
906.688335  	81.551586 
908.125242  	81.744788 
909.562149  	81.898784 
910.999056  	82.032682 
912.435963  	82.210265 
913.872870  	82.381859 
915.309777  	82.561376 
916.746684  	82.734603 
918.183591  	82.891773 
919.620498  	83.054884 
921.057406  	83.176916 
922.494313  	83.309747 
923.931220  	83.469275 
925.368127  	83.598796 
926.805034  	83.741323 
928.241941  	83.872387 
929.678848  	84.012297 
931.115755  	84.188248 
932.552662  	84.288793 
933.989569  	84.402894 
935.426476  	84.579155 
936.863383  	84.692054 
938.300290  	84.826590 
939.737197  	84.970053 
941.174104  	85.030222 
942.611011  	85.115484 
944.047918  	85.231362 
945.484825  	85.362973 
946.921732  	85.498395 
948.358639  	85.553509 
949.795546  	85.631708 
951.232453  	85.765391 
952.669360  	85.871882 
954.106267  	85.991080 
955.543174  	86.072891 
956.980081  	86.130056 
958.416988  	86.245582 
959.853895  	86.332756 
961.290802  	86.397138 
962.727709  	86.475137 
964.164616  	86.549408 
965.601523  	86.669079 
967.038430  	86.752261 
968.475337  	86.783894 
969.912244  	86.874759 
971.349152  	86.963350 
972.786059  	87.043700 
974.222966  	87.147174 
975.659873  	87.204072 
977.096780  	87.259041 
978.533687  	87.333098 
979.970594  	87.387355 
981.407501  	87.451075 
982.844408  	87.516826 
984.281315  	87.574780 
985.718222  	87.619763 
987.155129  	87.675977 
988.592036  	87.784153 
990.028943  	87.855168 
991.465850  	87.872641 
992.902757  	87.910569 
994.339664  	87.942320 
995.776571  	87.986493 
997.213478  	88.050857 
998.650385  	88.100710 
1000.087292  	88.144597 
1001.524199  	88.136786 
1002.961106  	88.126519 
1004.398013  	88.171347 
1005.834920  	88.198104 
1007.271827  	88.258473 
1008.708734  	88.336869 
1010.145641  	88.341433 
1011.582548  	88.378335 
1013.019455  	88.452196 
1014.456362  	88.511000 
1015.893269  	88.570865 
1017.330176  	88.561829 
1018.767083  	88.576898 
1020.203991  	88.678302 
1021.640898  	88.724767 
1023.077805  	88.760037 
1024.514712  	88.812482 
1025.951619  	88.821121 
1027.388526  	88.831450 
1028.825433  	88.807255 
1030.262340  	88.784750 
1031.699247  	88.830713 
1033.136154  	88.838229 
1034.573061  	88.826112 
1036.009968  	88.839139 
1037.446875  	88.833739 
1038.883782  	88.858785 
1040.320689  	88.898264 
1041.757596  	88.931232 
1043.194503  	88.983977 
1044.631410  	89.004460 
1046.068317  	89.020417 
1047.505224  	89.052074 
1048.942131  	89.074621 
1050.379038  	89.125486 
1051.815945  	89.152580 
1053.252852  	89.155753 
1054.689759  	89.201783 
1056.126666  	89.249599 
1057.563573  	89.309394 
1059.000480  	89.355908 
1060.437387  	89.342429 
1061.874294  	89.348378 
1063.311201  	89.365880 
1064.748108  	89.381948 
1066.185015  	89.410369 
1067.621922  	89.406786 
1069.058829  	89.439466 
1070.495737  	89.483766 
1071.932644  	89.469797 
1073.369551  	89.485378 
1074.806458  	89.484750 
1076.243365  	89.468070 
1077.680272  	89.515816 
1079.117179  	89.521036 
1080.554086  	89.504362 
1081.990993  	89.512292 
1083.427900  	89.492333 
1084.864807  	89.521271 
1086.301714  	89.547511 
1087.738621  	89.531195 
1089.175528  	89.559886 
1090.612435  	89.550169 
1092.049342  	89.541832 
1093.486249  	89.591732 
1094.923156  	89.570804 
1096.360063  	89.555345 
1097.796970  	89.594181 
1099.233877  	89.615379 
1100.670784  	89.650333 
1102.107691  	89.636980 
1103.544598  	89.618595 
1104.981505  	89.680644 
1106.418412  	89.693125 
1107.855319  	89.685452 
1109.292226  	89.714227 
1110.729133  	89.710370 
1112.166040  	89.735444 
1113.602947  	89.756066 
1115.039854  	89.722300 
1116.476761  	89.727753 
1117.913668  	89.757130 
1119.350575  	89.783518 
1120.787483  	89.793489 
1122.224390  	89.767280 
1123.661297  	89.771166 
1125.098204  	89.771273 
1126.535111  	89.759943 
1127.972018  	89.792646 
1129.408925  	89.788990 
1130.845832  	89.777804 
1132.282739  	89.811370 
1133.719646  	89.815283 
1135.156553  	89.818588 
1136.593460  	89.814899 
1138.030367  	89.802038 
1139.467274  	89.855196 
1140.904181  	89.881230 
1142.341088  	89.859576 
1143.777995  	89.875479 
1145.214902  	89.873941 
1146.651809  	89.859280 
1148.088716  	89.853594 
1149.525623  	89.841117 
1150.962530  	89.864134 
1152.399437  	89.867011 
1153.836344  	89.836713 
1155.273251  	89.845674 
1156.710158  	89.847236 
1158.147065  	89.831840 
1159.583972  	89.822541 
1161.020879  	89.807430 
1162.457786  	89.823747 
1163.894693  	89.831096 
1165.331600  	89.803580 
1166.768507  	89.804322 
1168.205414  	89.813933 
1169.642322  	89.818991 
1171.079229  	89.819315 
1172.516136  	89.793418 
1173.953043  	89.791738 
1175.389950  	89.804637 
1176.826857  	89.790953 
1178.263764  	89.781083 
1179.700671  	89.768632 
1181.137578  	89.765462 
1182.574485  	89.780675 
1184.011392  	89.767431 
1185.448299  	89.753945 
1186.885206  	89.764095 
1188.322113  	89.764574 
1189.759020  	89.758828 
1191.195927  	89.751779 
1192.632834  	89.752133 
1194.069741  	89.758736 
1195.506648  	89.745690 
1196.943555  	89.724911 
1198.380462  	89.715115 
1199.817369  	89.731837 
1201.254276  	89.760621 
1202.691183  	89.746614 
1204.128090  	89.720057 
1205.564997  	89.723232 
1207.001904  	89.720978 
1208.438811  	89.710288 
1209.875718  	89.705659 
1211.312625  	89.707908 
1212.749532  	89.714433 
1214.186439  	89.714710 
1215.623346  	89.726941 
1217.060253  	89.728614 
1218.497160  	89.697790 
1219.934068  	89.695681 
1221.370975  	89.712108 
1222.807882  	89.701115 
1224.244789  	89.691599 
1225.681696  	89.691922 
1227.118603  	89.698192 
1228.555510  	89.703718 
1229.992417  	89.700851 
1231.429324  	89.712796 
1232.866231  	89.713173 
1234.303138  	89.692688 
1235.740045  	89.689788 
1237.176952  	89.679482 
1238.613859  	89.657561 
1240.050766  	89.647328 
1241.487673  	89.640246 
1242.924580  	89.641573 
1244.361487  	89.634554 
1245.798394  	89.625583 
1247.235301  	89.633382 
1248.672208  	89.619656 
1250.109115  	89.605973 
1251.546022  	89.608291 
1252.982929  	89.599391 
1254.419836  	89.616710 
1255.856743  	89.625876 
1257.293650  	89.594380 
1258.730557  	89.589098 
1260.167464  	89.581702 
1261.604371  	89.563328 
1263.041278  	89.583131 
1264.478185  	89.594676 
1265.915092  	89.591352 
1267.351999  	89.588652 
1268.788907  	89.572901 
1270.225814  	89.563456 
1271.662721  	89.540564 
1273.099628  	89.525486 
1274.536535  	89.536832 
1275.973442  	89.508520 
1277.410349  	89.485822 
1278.847256  	89.509068 
1280.284163  	89.521793 
1281.721070  	89.533633 
1283.157977  	89.528127 
1284.594884  	89.512269 
1286.031791  	89.535139 
1287.468698  	89.541487 
1288.905605  	89.541394 
1290.342512  	89.561805 
1291.779419  	89.552880 
1293.216326  	89.563032 
1294.653233  	89.583556 
1296.090140  	89.569776 
1297.527047  	89.582142 
1298.963954  	89.590051 
1300.400861  	89.581181 
1301.837768  	89.608001 
1303.274675  	89.626314 
1304.711582  	89.634753 
1306.148489  	89.627453 
1307.585396  	89.607241 
1309.022303  	89.626019 
1310.459210  	89.646840 
1311.896117  	89.638692 
1313.333024  	89.644310 
1314.769931  	89.651614 
1316.206838  	89.650537 
1317.643745  	89.658545 
1319.080653  	89.656559 
1320.517560  	89.666616 
1321.954467  	89.661644 
1323.391374  	89.647970 
1324.828281  	89.665168 
1326.265188  	89.672202 
1327.702095  	89.669262 
1329.139002  	89.658348 
1330.575909  	89.629915 
1332.012816  	89.622409 
1333.449723  	89.619316 
1334.886630  	89.610146 
1336.323537  	89.615308 
1337.760444  	89.604699 
1339.197351  	89.571950 
1340.634258  	89.571325 
1342.071165  	89.579986 
1343.508072  	89.581544 
1344.944979  	89.582122 
1346.381886  	89.568729 
1347.818793  	89.555035 
1349.255700  	89.542062 
1350.692607  	89.523145 
1352.129514  	89.528062 
1353.566421  	89.501053 
1355.003328  	89.473607 
1356.440235  	89.471134 
1357.877142  	89.438849 
1359.314049  	89.430472 
1360.750956  	89.416117 
1362.187863  	89.383623 
1363.624770  	89.372667 
1365.061677  	89.358027 
1366.498584  	89.339460 
1367.935491  	89.314404 
1369.372399  	89.261520 
1370.809306  	89.236696 
1372.246213  	89.229886 
1373.683120  	89.169147 
1375.120027  	89.109713 
1376.556934  	89.107757 
1377.993841  	89.096849 
1379.430748  	89.038863 
1380.867655  	88.977317 
1382.304562  	88.978011 
1383.741469  	88.995779 
1385.178376  	88.982718 
1386.615283  	88.952220 
1388.052190  	88.904972 
1389.489097  	88.906785 
1390.926004  	88.936306 
1392.362911  	88.949015 
1393.799818  	88.952536 
1395.236725  	88.954035 
1396.673632  	88.958327 
1398.110539  	88.992014 
1399.547446  	89.009740 
1400.984353  	89.026228 
1402.421260  	89.068023 
1403.858167  	89.082175 
1405.295074  	89.096586 
1406.731981  	89.126522 
1408.168888  	89.135850 
1409.605795  	89.157358 
1411.042702  	89.182682 
1412.479609  	89.187546 
1413.916516  	89.204338 
1415.353423  	89.228686 
1416.790330  	89.235719 
1418.227238  	89.225209 
1419.664145  	89.191923 
1421.101052  	89.253343 
1422.537959  	89.304965 
1423.974866  	89.307580 
1425.411773  	89.325020 
1426.848680  	89.351774 
1428.285587  	89.370654 
1429.722494  	89.362527 
1431.159401  	89.337605 
1432.596308  	89.331305 
1434.033215  	89.340856 
1435.470122  	89.355986 
1436.907029  	89.354587 
1438.343936  	89.335363 
1439.780843  	89.340655 
1441.217750  	89.362479 
1442.654657  	89.362048 
1444.091564  	89.366021 
1445.528471  	89.357991 
1446.965378  	89.344935 
1448.402285  	89.340759 
1449.839192  	89.315862 
1451.276099  	89.316954 
1452.713006  	89.314189 
1454.149913  	89.281701 
1455.586820  	89.270953 
1457.023727  	89.236359 
1458.460634  	89.203666 
1459.897541  	89.239922 
1461.334448  	89.250796 
1462.771355  	89.250658 
1464.208262  	89.241522 
1465.645169  	89.179673 
1467.082076  	89.147122 
1468.518984  	89.156939 
1469.955891  	89.166536 
1471.392798  	89.178106 
1472.829705  	89.120465 
1474.266612  	89.110577 
1475.703519  	89.126711 
1477.140426  	89.082755 
1478.577333  	89.056196 
1480.014240  	89.062932 
1481.451147  	89.033602 
1482.888054  	88.999016 
1484.324961  	88.984903 
1485.761868  	88.957255 
1487.198775  	88.937368 
1488.635682  	88.864456 
1490.072589  	88.806399 
1491.509496  	88.819765 
1492.946403  	88.791921 
1494.383310  	88.775379 
1495.820217  	88.759884 
1497.257124  	88.695415 
1498.694031  	88.648938 
1500.130938  	88.591182 
1501.567845  	88.553322 
1503.004752  	88.546711 
1504.441659  	88.497352 
1505.878566  	88.468195 
1507.315473  	88.409959 
1508.752380  	88.318570 
1510.189287  	88.303930 
1511.626194  	88.286344 
1513.063101  	88.251017 
1514.500008  	88.213387 
1515.936915  	88.107417 
1517.373822  	88.019133 
1518.810730  	88.024899 
1520.247637  	87.977494 
1521.684544  	87.900260 
1523.121451  	87.849878 
1524.558358  	87.807666 
1525.995265  	87.766427 
1527.432172  	87.672985 
1528.869079  	87.628098 
1530.305986  	87.582748 
1531.742893  	87.462910 
1533.179800  	87.376280 
1534.616707  	87.247697 
1536.053614  	87.140092 
1537.490521  	87.090279 
1538.927428  	87.002096 
1540.364335  	86.854835 
1541.801242  	86.753398 
1543.238149  	86.608351 
1544.675056  	86.550589 
1546.111963  	86.434003 
1547.548870  	86.292945 
1548.985777  	86.198238 
1550.422684  	86.034010 
1551.859591  	85.869536 
1553.296498  	85.749675 
1554.733405  	85.572290 
1556.170312  	85.462707 
1557.607219  	85.355656 
1559.044126  	85.004778 
1560.481033  	84.984441 
1561.917940  	84.859125 
1563.354847  	84.713399 
1564.791754  	84.619876 
1566.228661  	84.394679 
1567.665569  	84.236714 
1569.102476  	84.074504 
1570.539383  	83.816493 
1571.976290  	83.751317 
1573.413197  	83.592366 
1574.850104  	83.402488 
1576.287011  	83.250500 
1577.723918  	82.965172 
1579.160825  	82.771014 
1580.597732  	82.626870 
1582.034639  	82.415958 
1583.471546  	82.227411 
1584.908453  	81.980523 
1586.345360  	81.705496 
1587.782267  	81.543960 
1589.219174  	81.217427 
1590.656081  	80.894335 
1592.092988  	80.650481 
1593.529895  	80.310128 
1594.966802  	79.998058 
1596.403709  	79.678713 
1597.840616  	79.305525 
1599.277523  	78.987908 
1600.714430  	78.539783 
1602.151337  	78.086730 
1603.588244  	77.692741 
1605.025151  	77.196285 
1606.462058  	76.738322 
1607.898965  	76.285789 
1609.335872  	75.766218 
1610.772779  	75.331116 
1612.209686  	74.829753 
1613.646593  	74.303601 
1615.083500  	73.938235 
1616.520407  	73.332910 
1617.957315  	72.749706 
1619.394222  	72.352715 
1620.831129  	71.825919 
1622.268036  	71.474381 
1623.704943  	71.084214 
1625.141850  	70.627562 
1626.578757  	70.402755 
1628.015664  	70.042128 
1629.452571  	69.762138 
1630.889478  	69.636579 
1632.326385  	69.372054 
1633.763292  	69.265603 
1635.200199  	69.281749 
1636.637106  	69.282607 
1638.074013  	69.447062 
1639.510920  	69.411163 
1640.947827  	69.468180 
1642.384734  	69.680402 
1643.821641  	69.732755 
1645.258548  	69.888970 
1646.695455  	70.274235 
1648.132362  	70.711378 
1649.569269  	71.102556 
1651.006176  	71.236348 
1652.443083  	71.372245 
1653.879990  	72.663067 
1655.316897  	72.787732 
1656.753804  	72.926845 
1658.190711  	73.386173 
1659.627618  	73.758752 
1661.064525  	74.173214 
1662.501432  	74.636954 
1663.938339  	75.127376 
1665.375246  	75.616295 
1666.812154  	75.981960 
1668.249061  	76.380867 
1669.685968  	76.999577 
1671.122875  	77.515770 
1672.559782  	77.944439 
1673.996689  	78.374116 
1675.433596  	78.860381 
1676.870503  	79.422462 
1678.307410  	79.782051 
1679.744317  	80.196407 
1681.181224  	80.745390 
1682.618131  	81.113386 
1684.055038  	81.516650 
1685.491945  	82.254469 
1686.928852  	82.563637 
1688.365759  	82.957650 
1689.802666  	83.423418 
1691.239573  	83.835597 
1692.676480  	84.273846 
1694.113387  	84.556713 
1695.550294  	84.880252 
1696.987201  	85.357883 
1698.424108  	85.593279 
1699.861015  	85.930472 
1701.297922  	86.462752 
1702.734829  	86.597560 
1704.171736  	86.885642 
1705.608643  	87.203661 
1707.045550  	87.477907 
1708.482457  	87.817502 
1709.919364  	88.077103 
1711.356271  	88.350804 
1712.793178  	88.670353 
1714.230085  	88.904263 
1715.666992  	89.184100 
1717.103900  	89.475850 
1718.540807  	89.703410 
1719.977714  	90.028219 
1721.414621  	90.264665 
1722.851528  	90.509364 
1724.288435  	90.800821 
1725.725342  	91.000362 
1727.162249  	91.221659 
1728.599156  	91.374674 
1730.036063  	91.480960 
1731.472970  	91.637257 
1732.909877  	91.780951 
1734.346784  	91.900828 
1735.783691  	92.051069 
1737.220598  	92.149707 
1738.657505  	92.316145 
1740.094412  	92.450863 
1741.531319  	92.498450 
1742.968226  	92.613963 
1744.405133  	92.718678 
1745.842040  	92.837946 
1747.278947  	92.989137 
1748.715854  	93.061368 
1750.152761  	93.184042 
1751.589668  	93.326148 
1753.026575  	93.374404 
1754.463482  	93.516706 
1755.900389  	93.630726 
1757.337296  	93.626870 
1758.774203  	93.725104 
1760.211110  	93.795006 
1761.648017  	93.846764 
1763.084924  	93.894191 
1764.521831  	93.917325 
1765.958738  	94.071843 
1767.395646  	94.156166 
1768.832553  	94.153916 
1770.269460  	94.255637 
1771.706367  	94.322054 
1773.143274  	94.295618 
1774.580181  	94.340165 
1776.017088  	94.361395 
1777.453995  	94.429400 
1778.890902  	94.494726 
1780.327809  	94.497542 
1781.764716  	94.548720 
1783.201623  	94.612025 
1784.638530  	94.644352 
1786.075437  	94.703526 
1787.512344  	94.740215 
1788.949251  	94.791418 
1790.386158  	94.833638 
1791.823065  	94.807943 
1793.259972  	94.833973 
1794.696879  	94.861234 
1796.133786  	94.871145 
1797.570693  	94.936019 
1799.007600  	94.971321 
1800.444507  	94.998618 
1801.881414  	94.997660 
1803.318321  	95.005922 
1804.755228  	95.105574 
1806.192135  	95.135753 
1807.629042  	95.109284 
1809.065949  	95.170112 
1810.502856  	95.170242 
1811.939763  	95.141443 
1813.376670  	95.160776 
1814.813577  	95.188468 
1816.250485  	95.250904 
1817.687392  	95.266526 
1819.124299  	95.249794 
1820.561206  	95.303186 
1821.998113  	95.298477 
1823.435020  	95.333375 
1824.871927  	95.380139 
1826.308834  	95.312373 
1827.745741  	95.348046 
1829.182648  	95.402295 
1830.619555  	95.342432 
1832.056462  	95.401143 
1833.493369  	95.444060 
1834.930276  	95.442177 
1836.367183  	95.479382 
1837.804090  	95.463840 
1839.240997  	95.482441 
1840.677904  	95.519622 
1842.114811  	95.521959 
1843.551718  	95.573102 
1844.988625  	95.543522 
1846.425532  	95.509660 
1847.862439  	95.568137 
1849.299346  	95.556685 
1850.736253  	95.559364 
1852.173160  	95.580767 
1853.610067  	95.560133 
1855.046974  	95.601002 
1856.483881  	95.623084 
1857.920788  	95.606721 
1859.357695  	95.629259 
1860.794602  	95.578036 
1862.231509  	95.581671 
1863.668416  	95.640688 
1865.105323  	95.628930 
1866.542231  	95.658182 
1867.979138  	95.675979 
1869.416045  	95.639175 
1870.852952  	95.637450 
1872.289859  	95.605474 
1873.726766  	95.668090 
1875.163673  	95.740911 
1876.600580  	95.613890 
1878.037487  	95.634651 
1879.474394  	95.670327 
1880.911301  	95.670549 
1882.348208  	95.709567 
1883.785115  	95.707277 
1885.222022  	95.695075 
1886.658929  	95.701353 
1888.095836  	95.633662 
1889.532743  	95.637254 
1890.969650  	95.651781 
1892.406557  	95.652636 
1893.843464  	95.704914 
1895.280371  	95.651243 
1896.717278  	95.636001 
1898.154185  	95.706240 
1899.591092  	95.662405 
1901.027999  	95.687251 
1902.464906  	95.774040 
1903.901813  	95.724958 
1905.338720  	95.711785 
1906.775627  	95.718453 
1908.212534  	95.714089 
1909.649441  	95.677237 
1911.086348  	95.559536 
1912.523255  	95.610451 
1913.960162  	95.752125 
1915.397069  	95.719592 
1916.833977  	95.778449 
1918.270884  	95.747706 
1919.707791  	95.711205 
1921.144698  	95.789177 
1922.581605  	95.734225 
1924.018512  	95.710434 
1925.455419  	95.776433 
1926.892326  	95.701562 
1928.329233  	95.708083 
1929.766140  	95.735672 
1931.203047  	95.716578 
1932.639954  	95.780172 
1934.076861  	95.737545 
1935.513768  	95.761074 
1936.950675  	95.847969 
1938.387582  	95.757971 
1939.824489  	95.727401 
1941.261396  	95.689453 
1942.698303  	95.602239 
1944.135210  	95.746877 
1945.572117  	95.773923 
1947.009024  	95.725207 
1948.445931  	95.807064 
1949.882838  	95.778849 
1951.319745  	95.796522 
1952.756652  	95.779808 
1954.193559  	95.651057 
1955.630466  	95.725389 
1957.067373  	95.862971 
1958.504280  	96.107028 
1959.941187  	96.120007 
1961.378094  	95.675581 
1962.815001  	95.670587 
1964.251908  	95.849303 
1965.688816  	95.805505 
1967.125723  	95.951434 
1968.562630  	95.866781 
1969.999537  	95.900258 
1971.436444  	96.070822 
1972.873351  	95.872232 
1974.310258  	95.842449 
1975.747165  	96.039801 
1977.184072  	95.944020 
1978.620979  	95.676043 
1980.057886  	95.393393 
1981.494793  	95.509505 
1982.931700  	95.750382 
1984.368607  	95.588490 
1985.805514  	95.486458 
1987.242421  	95.474250 
1988.679328  	95.371365 
1990.116235  	95.552364 
1991.553142  	95.373261 
1992.990049  	95.178072 
1994.426956  	95.488653 
1995.863863  	95.467572 
1997.300770  	95.476509 
1998.737677  	95.630964 
2000.174584  	95.450981 
2001.611491  	95.378338 
2003.048398  	95.277642 
2004.485305  	95.239920 
2005.922212  	95.596689 
2007.359119  	95.611644 
2008.796026  	95.587529 
2010.232933  	95.616965 
2011.669840  	95.206603 
2013.106747  	95.012450 
2014.543654  	94.976800 
2015.980562  	94.953982 
2017.417469  	95.298059 
2018.854376  	95.294234 
2020.291283  	95.161992 
2021.728190  	95.291864 
2023.165097  	95.377840 
2024.602004  	95.674005 
2026.038911  	95.708793 
2027.475818  	95.433578 
2028.912725  	95.385811 
2030.349632  	95.225188 
2031.786539  	95.223296 
2033.223446  	95.188471 
2034.660353  	94.753641 
2036.097260  	94.786423 
2037.534167  	94.917445 
2038.971074  	94.822256 
2040.407981  	94.994128 
2041.844888  	94.840673 
2043.281795  	94.584917 
2044.718702  	94.616938 
2046.155609  	94.522948 
2047.592516  	94.585927 
2049.029423  	94.577508 
2050.466330  	94.409737 
2051.903237  	94.636844 
2053.340144  	94.670341 
2054.777051  	94.372644 
2056.213958  	94.287295 
2057.650865  	94.264229 
2059.087772  	94.283964 
2060.524679  	94.325622 
2061.961586  	94.275947 
2063.398493  	94.272753 
2064.835401  	94.178883 
2066.272308  	94.214674 
2067.709215  	94.381096 
2069.146122  	94.233519 
2070.583029  	94.195196 
2072.019936  	94.306867 
2073.456843  	94.214446 
2074.893750  	94.236974 
2076.330657  	94.178705 
2077.767564  	93.984836 
2079.204471  	94.033679 
2080.641378  	93.996787 
2082.078285  	93.870016 
2083.515192  	93.930686 
2084.952099  	94.017406 
2086.389006  	94.117504 
2087.825913  	94.108378 
2089.262820  	94.055757 
2090.699727  	94.142298 
2092.136634  	94.056565 
2093.573541  	94.014895 
2095.010448  	94.257502 
2096.447355  	94.261621 
2097.884262  	94.074743 
2099.321169  	94.006097 
2100.758076  	93.994182 
2102.194983  	94.028086 
2103.631890  	94.035422 
2105.068797  	94.023527 
2106.505704  	93.935102 
2107.942611  	93.778767 
2109.379518  	93.819227 
2110.816425  	93.871496 
2112.253332  	93.841443 
2113.690239  	93.924770 
2115.127147  	93.934272 
2116.564054  	93.992003 
2118.000961  	94.099220 
2119.437868  	93.915670 
2120.874775  	93.826562 
2122.311682  	93.951129 
2123.748589  	93.973455 
2125.185496  	94.056949 
2126.622403  	94.139501 
2128.059310  	94.218854 
2129.496217  	94.342940 
2130.933124  	94.248167 
2132.370031  	94.276273 
2133.806938  	94.420428 
2135.243845  	94.294148 
2136.680752  	94.341268 
2138.117659  	94.452937 
2139.554566  	94.416117 
2140.991473  	94.453903 
2142.428380  	94.292907 
2143.865287  	94.255570 
2145.302194  	94.359044 
2146.739101  	94.128633 
2148.176008  	94.214516 
2149.612915  	94.430529 
2151.049822  	94.326535 
2152.486729  	94.497453 
2153.923636  	94.566128 
2155.360543  	94.539838 
2156.797450  	94.731327 
2158.234357  	94.443475 
2159.671264  	94.141169 
2161.108171  	94.137500 
2162.545078  	94.125232 
2163.981985  	94.356338 
2165.418893  	94.287821 
2166.855800  	94.097055 
2168.292707  	94.134577 
2169.729614  	94.071408 
2171.166521  	94.269466 
2172.603428  	94.408488 
2174.040335  	94.222959 
2175.477242  	94.399292 
2176.914149  	94.432214 
2178.351056  	94.307556 
2179.787963  	94.532544 
2181.224870  	94.325194 
2182.661777  	93.941394 
2184.098684  	94.086441 
2185.535591  	94.329855 
2186.972498  	94.562997 
2188.409405  	94.644600 
2189.846312  	94.617181 
2191.283219  	94.642270 
2192.720126  	94.422733 
2194.157033  	94.247846 
2195.593940  	94.277896 
2197.030847  	94.246081 
2198.467754  	94.335929 
2199.904661  	94.384743 
2201.341568  	94.338485 
2202.778475  	94.491918 
2204.215382  	94.619519 
2205.652289  	94.681794 
2207.089196  	94.658312 
2208.526103  	94.502597 
2209.963010  	94.524502 
2211.399917  	94.594837 
2212.836824  	94.644152 
2214.273732  	94.721727 
2215.710639  	94.610322 
2217.147546  	94.669431 
2218.584453  	94.825816 
2220.021360  	94.673411 
2221.458267  	94.681467 
2222.895174  	94.767605 
2224.332081  	94.619941 
2225.768988  	94.593070 
2227.205895  	94.612563 
2228.642802  	94.615449 
2230.079709  	94.706153 
2231.516616  	94.746263 
2232.953523  	94.841286 
2234.390430  	94.865506 
2235.827337  	94.750911 
2237.264244  	94.773136 
2238.701151  	94.809079 
2240.138058  	94.816403 
2241.574965  	94.824103 
2243.011872  	94.752796 
2244.448779  	94.855879 
2245.885686  	94.970637 
2247.322593  	94.867666 
2248.759500  	94.875462 
2250.196407  	94.953433 
2251.633314  	94.962208 
2253.070221  	94.970893 
2254.507128  	94.943096 
2255.944035  	94.963381 
2257.380942  	94.950475 
2258.817849  	94.919328 
2260.254756  	95.038108 
2261.691663  	95.066204 
2263.128570  	95.077846 
2264.565478  	95.200181 
2266.002385  	95.088406 
2267.439292  	94.971210 
2268.876199  	95.097727 
2270.313106  	95.138968 
2271.750013  	95.079268 
2273.186920  	95.056730 
2274.623827  	95.116750 
2276.060734  	95.211006 
2277.497641  	95.143359 
2278.934548  	95.056490 
2280.371455  	95.086876 
2281.808362  	95.101815 
2283.245269  	95.132813 
2284.682176  	95.133903 
2286.119083  	95.063017 
2287.555990  	95.077256 
2288.992897  	95.156198 
2290.429804  	95.197712 
2291.866711  	95.185554 
2293.303618  	95.165367 
2294.740525  	95.208260 
2296.177432  	95.247510 
2297.614339  	95.265801 
2299.051246  	95.231512 
2300.488153  	95.284440 
2301.925060  	95.266832 
2303.361967  	95.288278 
2304.798874  	95.314564 
2306.235781  	95.370261 
2307.672688  	95.375003 
2309.109595  	95.356744 
2310.546502  	95.398439 
2311.983409  	95.381862 
2313.420317  	95.373871 
2314.857224  	95.432432 
2316.294131  	95.429240 
2317.731038  	95.454793 
2319.167945  	95.517017 
2320.604852  	95.497766 
2322.041759  	95.424908 
2323.478666  	95.314842 
2324.915573  	95.324811 
2326.352480  	95.495304 
2327.789387  	95.611987 
2329.226294  	95.657890 
2330.663201  	95.665086 
2332.100108  	95.653026 
2333.537015  	95.733506 
2334.973922  	95.795733 
2336.410829  	95.787087 
2337.847736  	95.794998 
2339.284643  	95.806454 
2340.721550  	95.866578 
2342.158457  	95.910877 
2343.595364  	95.887469 
2345.032271  	95.880877 
2346.469178  	95.795497 
2347.906085  	95.742786 
2349.342992  	95.827575 
2350.779899  	95.902984 
2352.216806  	95.947230 
2353.653713  	95.982324 
2355.090620  	95.950943 
2356.527527  	95.978723 
2357.964434  	96.000078 
2359.401341  	95.932817 
2360.838248  	95.971086 
2362.275155  	96.049621 
2363.712063  	96.120220 
2365.148970  	96.160641 
2366.585877  	96.114758 
2368.022784  	96.129665 
2369.459691  	96.130733 
2370.896598  	96.096161 
2372.333505  	96.158014 
2373.770412  	96.180930 
2375.207319  	96.139908 
2376.644226  	96.106185 
2378.081133  	96.072855 
2379.518040  	96.096673 
2380.954947  	96.122624 
2382.391854  	96.126042 
2383.828761  	96.174348 
2385.265668  	96.193029 
2386.702575  	96.186165 
2388.139482  	96.204873 
2389.576389  	96.170467 
2391.013296  	96.117955 
2392.450203  	96.125129 
2393.887110  	96.164227 
2395.324017  	96.203131 
2396.760924  	96.192219 
2398.197831  	96.173173 
2399.634738  	96.201909 
2401.071645  	96.200964 
2402.508552  	96.173743 
2403.945459  	96.193142 
2405.382366  	96.252546 
2406.819273  	96.274235 
2408.256180  	96.217007 
2409.693087  	96.215162 
2411.129994  	96.290214 
2412.566901  	96.295789 
2414.003809  	96.266381 
2415.440716  	96.254183 
2416.877623  	96.262122 
2418.314530  	96.311843 
2419.751437  	96.322439 
2421.188344  	96.333541 
2422.625251  	96.371942 
2424.062158  	96.314991 
2425.499065  	96.286007 
2426.935972  	96.353862 
2428.372879  	96.358855 
2429.809786  	96.334490 
2431.246693  	96.331680 
2432.683600  	96.334701 
2434.120507  	96.355273 
2435.557414  	96.336880 
2436.994321  	96.339621 
2438.431228  	96.402599 
2439.868135  	96.418019 
2441.305042  	96.409500 
2442.741949  	96.412649 
2444.178856  	96.409579 
2445.615763  	96.411771 
2447.052670  	96.412230 
2448.489577  	96.459885 
2449.926484  	96.502476 
2451.363391  	96.459938 
2452.800298  	96.447353 
2454.237205  	96.461722 
2455.674112  	96.446310 
2457.111019  	96.454501 
2458.547926  	96.443885 
2459.984833  	96.438347 
2461.421740  	96.461264 
2462.858648  	96.431432 
2464.295555  	96.436374 
2465.732462  	96.499302 
2467.169369  	96.511549 
2468.606276  	96.503583 
2470.043183  	96.497845 
2471.480090  	96.510454 
2472.916997  	96.543718 
2474.353904  	96.532943 
2475.790811  	96.529158 
2477.227718  	96.538832 
2478.664625  	96.525293 
2480.101532  	96.559746 
2481.538439  	96.586210 
2482.975346  	96.554477 
2484.412253  	96.546797 
2485.849160  	96.565334 
2487.286067  	96.591061 
2488.722974  	96.583786 
2490.159881  	96.533983 
2491.596788  	96.542132 
2493.033695  	96.600548 
2494.470602  	96.649786 
2495.907509  	96.668411 
2497.344416  	96.650460 
2498.781323  	96.675202 
2500.218230  	96.689667 
2501.655137  	96.628829 
2503.092044  	96.626249 
2504.528951  	96.653690 
2505.965858  	96.634174 
2507.402765  	96.664699 
2508.839672  	96.725325 
2510.276579  	96.721970 
2511.713486  	96.654754 
2513.150394  	96.625121 
2514.587301  	96.687539 
2516.024208  	96.702758 
2517.461115  	96.678086 
2518.898022  	96.717584 
2520.334929  	96.715653 
2521.771836  	96.705797 
2523.208743  	96.765255 
2524.645650  	96.774762 
2526.082557  	96.754380 
2527.519464  	96.761930 
2528.956371  	96.770063 
2530.393278  	96.780820 
2531.830185  	96.746947 
2533.267092  	96.720763 
2534.703999  	96.763171 
2536.140906  	96.764979 
2537.577813  	96.725130 
2539.014720  	96.708317 
2540.451627  	96.714346 
2541.888534  	96.754916 
2543.325441  	96.777643 
2544.762348  	96.768800 
2546.199255  	96.765033 
2547.636162  	96.743255 
2549.073069  	96.732736 
2550.509976  	96.754181 
2551.946883  	96.793390 
2553.383790  	96.846548 
2554.820697  	96.855335 
2556.257604  	96.843880 
2557.694511  	96.861945 
2559.131418  	96.881480 
2560.568325  	96.912177 
2562.005232  	96.903050 
2563.442140  	96.853683 
2564.879047  	96.871242 
2566.315954  	96.895095 
2567.752861  	96.890743 
2569.189768  	96.906191 
2570.626675  	96.882069 
2572.063582  	96.867886 
2573.500489  	96.903297 
2574.937396  	96.890577 
2576.374303  	96.848631 
2577.811210  	96.829271 
2579.248117  	96.841490 
2580.685024  	96.856543 
2582.121931  	96.812498 
2583.558838  	96.806453 
2584.995745  	96.872523 
2586.432652  	96.888846 
2587.869559  	96.904157 
2589.306466  	96.935049 
2590.743373  	96.896729 
2592.180280  	96.864605 
2593.617187  	96.881530 
2595.054094  	96.889680 
2596.491001  	96.879238 
2597.927908  	96.854681 
2599.364815  	96.844705 
2600.801722  	96.860542 
2602.238629  	96.867829 
2603.675536  	96.859244 
2605.112443  	96.848551 
2606.549350  	96.858673 
2607.986257  	96.874837 
2609.423164  	96.860575 
2610.860071  	96.838677 
2612.296979  	96.824354 
2613.733886  	96.822038 
2615.170793  	96.842889 
2616.607700  	96.851085 
2618.044607  	96.840132 
2619.481514  	96.838117 
2620.918421  	96.843599 
2622.355328  	96.842599 
2623.792235  	96.825802 
2625.229142  	96.835765 
2626.666049  	96.881346 
2628.102956  	96.886902 
2629.539863  	96.862925 
2630.976770  	96.850944 
2632.413677  	96.834726 
2633.850584  	96.831944 
2635.287491  	96.837108 
2636.724398  	96.829189 
2638.161305  	96.821437 
2639.598212  	96.800031 
2641.035119  	96.777901 
2642.472026  	96.778449 
2643.908933  	96.792178 
2645.345840  	96.824153 
2646.782747  	96.840551 
2648.219654  	96.821981 
2649.656561  	96.809238 
2651.093468  	96.799026 
2652.530375  	96.792060 
2653.967282  	96.796927 
2655.404189  	96.792360 
2656.841096  	96.792967 
2658.278003  	96.788908 
2659.714910  	96.771767 
2661.151817  	96.784170 
2662.588725  	96.801796 
2664.025632  	96.795039 
2665.462539  	96.788649 
2666.899446  	96.794748 
2668.336353  	96.822828 
2669.773260  	96.830104 
2671.210167  	96.800000 
2672.647074  	96.800584 
2674.083981  	96.798461 
2675.520888  	96.767547 
2676.957795  	96.779536 
2678.394702  	96.795541 
2679.831609  	96.772044 
2681.268516  	96.757020 
2682.705423  	96.757753 
2684.142330  	96.769247 
2685.579237  	96.768963 
2687.016144  	96.741055 
2688.453051  	96.737614 
2689.889958  	96.751612 
2691.326865  	96.740604 
2692.763772  	96.729338 
2694.200679  	96.735480 
2695.637586  	96.741189 
2697.074493  	96.723123 
2698.511400  	96.694797 
2699.948307  	96.689837 
2701.385214  	96.689822 
2702.822121  	96.680522 
2704.259028  	96.661849 
2705.695935  	96.631165 
2707.132842  	96.633075 
2708.569749  	96.654329 
2710.006656  	96.638113 
2711.443564  	96.620050 
2712.880471  	96.619329 
2714.317378  	96.609325 
2715.754285  	96.601368 
2717.191192  	96.594238 
2718.628099  	96.578553 
2720.065006  	96.563385 
2721.501913  	96.562973 
2722.938820  	96.581555 
2724.375727  	96.581968 
2725.812634  	96.553722 
2727.249541  	96.531385 
2728.686448  	96.519150 
2730.123355  	96.514063 
2731.560262  	96.513441 
2732.997169  	96.509573 
2734.434076  	96.503036 
2735.870983  	96.482919 
2737.307890  	96.470337 
2738.744797  	96.477686 
2740.181704  	96.464235 
2741.618611  	96.441845 
2743.055518  	96.428444 
2744.492425  	96.406292 
2745.929332  	96.407079 
2747.366239  	96.428071 
2748.803146  	96.417774 
2750.240053  	96.386600 
2751.676960  	96.369420 
2753.113867  	96.365386 
2754.550774  	96.344765 
2755.987681  	96.312900 
2757.424588  	96.302573 
2758.861495  	96.290935 
2760.298402  	96.278760 
2761.735310  	96.285338 
2763.172217  	96.268260 
2764.609124  	96.245300 
2766.046031  	96.247574 
2767.482938  	96.233352 
2768.919845  	96.214606 
2770.356752  	96.205622 
2771.793659  	96.181877 
2773.230566  	96.161031 
2774.667473  	96.147823 
2776.104380  	96.139763 
2777.541287  	96.137008 
2778.978194  	96.116456 
2780.415101  	96.096271 
2781.852008  	96.085113 
2783.288915  	96.057969 
2784.725822  	96.023908 
2786.162729  	95.995384 
2787.599636  	95.987106 
2789.036543  	95.988641 
2790.473450  	95.969418 
2791.910357  	95.956045 
2793.347264  	95.940094 
2794.784171  	95.903446 
2796.221078  	95.889543 
2797.657985  	95.863661 
2799.094892  	95.809101 
2800.531799  	95.792341 
2801.968706  	95.784145 
2803.405613  	95.752601 
2804.842520  	95.723172 
2806.279427  	95.691058 
2807.716334  	95.682247 
2809.153241  	95.688766 
2810.590148  	95.653027 
2812.027056  	95.605350 
2813.463963  	95.590601 
2814.900870  	95.590200 
2816.337777  	95.578756 
2817.774684  	95.555321 
2819.211591  	95.525582 
2820.648498  	95.478572 
2822.085405  	95.445181 
2823.522312  	95.448314 
2824.959219  	95.431703 
2826.396126  	95.398996 
2827.833033  	95.377757 
2829.269940  	95.336656 
2830.706847  	95.301270 
2832.143754  	95.286784 
2833.580661  	95.261186 
2835.017568  	95.227093 
2836.454475  	95.169981 
2837.891382  	95.113705 
2839.328289  	95.103562 
2840.765196  	95.097464 
2842.202103  	95.069996 
2843.639010  	95.021815 
2845.075917  	94.963243 
2846.512824  	94.937363 
2847.949731  	94.903478 
2849.386638  	94.845901 
2850.823545  	94.821671 
2852.260452  	94.782891 
2853.697359  	94.722968 
2855.134266  	94.703229 
2856.571173  	94.682680 
2858.008080  	94.647165 
2859.444987  	94.617280 
2860.881895  	94.580924 
2862.318802  	94.560099 
2863.755709  	94.537122 
2865.192616  	94.480247 
2866.629523  	94.422564 
2868.066430  	94.384561 
2869.503337  	94.359176 
2870.940244  	94.325131 
2872.377151  	94.281749 
2873.814058  	94.247116 
2875.250965  	94.189218 
2876.687872  	94.118238 
2878.124779  	94.072693 
2879.561686  	94.025797 
2880.998593  	93.985606 
2882.435500  	93.952735 
2883.872407  	93.898500 
2885.309314  	93.852586 
2886.746221  	93.799949 
2888.183128  	93.739008 
2889.620035  	93.718529 
2891.056942  	93.677228 
2892.493849  	93.594385 
2893.930756  	93.532961 
2895.367663  	93.468665 
2896.804570  	93.398556 
2898.241477  	93.349755 
2899.678384  	93.308597 
2901.115291  	93.279401 
2902.552198  	93.225298 
2903.989105  	93.126714 
2905.426012  	93.044989 
2906.862919  	92.992976 
2908.299826  	92.947630 
2909.736733  	92.883730 
2911.173641  	92.786551 
2912.610548  	92.706448 
2914.047455  	92.653643 
2915.484362  	92.591568 
2916.921269  	92.523406 
2918.358176  	92.438956 
2919.795083  	92.339402 
2921.231990  	92.250197 
2922.668897  	92.171604 
2924.105804  	92.107889 
2925.542711  	92.047903 
2926.979618  	91.978901 
2928.416525  	91.916582 
2929.853432  	91.858323 
2931.290339  	91.797453 
2932.727246  	91.730312 
2934.164153  	91.660303 
2935.601060  	91.590457 
2937.037967  	91.498250 
2938.474874  	91.414508 
2939.911781  	91.354450 
2941.348688  	91.262764 
2942.785595  	91.166150 
2944.222502  	91.076525 
2945.659409  	90.968543 
2947.096316  	90.906461 
2948.533223  	90.847392 
2949.970130  	90.724774 
2951.407037  	90.634504 
2952.843944  	90.576198 
2954.280851  	90.484375 
2955.717758  	90.373700 
2957.154665  	90.245775 
2958.591572  	90.151361 
2960.028479  	90.099804 
2961.465387  	90.014258 
2962.902294  	89.917257 
2964.339201  	89.820327 
2965.776108  	89.699905 
2967.213015  	89.596150 
2968.649922  	89.498005 
2970.086829  	89.385389 
2971.523736  	89.265928 
2972.960643  	89.138929 
2974.397550  	89.038225 
2975.834457  	88.936195 
2977.271364  	88.804250 
2978.708271  	88.693938 
2980.145178  	88.582763 
2981.582085  	88.446480 
2983.018992  	88.317404 
2984.455899  	88.193885 
2985.892806  	88.083534 
2987.329713  	87.966929 
2988.766620  	87.829927 
2990.203527  	87.699601 
2991.640434  	87.551957 
2993.077341  	87.415645 
2994.514248  	87.315949 
2995.951155  	87.172493 
2997.388062  	87.000004 
2998.824969  	86.848078 
3000.261876  	86.705676 
3001.698783  	86.571916 
3003.135690  	86.405970 
3004.572597  	86.232736 
3006.009504  	86.097537 
3007.446411  	85.942520 
3008.883318  	85.792201 
3010.320226  	85.650402 
3011.757133  	85.456984 
3013.194040  	85.282916 
3014.630947  	85.142836 
3016.067854  	84.991230 
3017.504761  	84.838876 
3018.941668  	84.653057 
3020.378575  	84.473044 
3021.815482  	84.322985 
3023.252389  	84.141536 
3024.689296  	83.976284 
3026.126203  	83.816428 
3027.563110  	83.610635 
3029.000017  	83.428159 
3030.436924  	83.258495 
3031.873831  	83.071175 
3033.310738  	82.876325 
3034.747645  	82.661636 
3036.184552  	82.477855 
3037.621459  	82.296270 
3039.058366  	82.065913 
3040.495273  	81.854734 
3041.932180  	81.667807 
3043.369087  	81.484809 
3044.805994  	81.270921 
3046.242901  	81.017169 
3047.679808  	80.838560 
3049.116715  	80.666537 
3050.553622  	80.414503 
3051.990529  	80.205013 
3053.427436  	79.993675 
3054.864343  	79.752767 
3056.301250  	79.551996 
3057.738157  	79.310963 
3059.175064  	79.071597 
3060.611972  	78.859638 
3062.048879  	78.593153 
3063.485786  	78.357360 
3064.922693  	78.132703 
3066.359600  	77.874250 
3067.796507  	77.665449 
3069.233414  	77.440116 
3070.670321  	77.196113 
3072.107228  	76.972321 
3073.544135  	76.708815 
3074.981042  	76.468546 
3076.417949  	76.246221 
3077.854856  	75.986710 
3079.291763  	75.714151 
3080.728670  	75.400900 
3082.165577  	75.139745 
3083.602484  	74.933686 
3085.039391  	74.645635 
3086.476298  	74.368751 
3087.913205  	74.112224 
3089.350112  	73.822699 
3090.787019  	73.567820 
3092.223926  	73.255713 
3093.660833  	72.923012 
3095.097740  	72.675112 
3096.534647  	72.415341 
3097.971554  	72.173199 
3099.408461  	71.925847 
3100.845368  	71.611876 
3102.282275  	71.326915 
3103.719182  	71.020332 
3105.156089  	70.718922 
3106.592996  	70.478643 
3108.029903  	70.182088 
3109.466811  	69.901679 
3110.903718  	69.632295 
3112.340625  	69.295537 
3113.777532  	69.000521 
3115.214439  	68.686420 
3116.651346  	68.378088 
3118.088253  	68.136507 
3119.525160  	67.800725 
3120.962067  	67.484377 
3122.398974  	67.226026 
3123.835881  	66.902708 
3125.272788  	66.638472 
3126.709695  	66.342067 
3128.146602  	65.982917 
3129.583509  	65.714373 
3131.020416  	65.410503 
3132.457323  	65.116304 
3133.894230  	64.850888 
3135.331137  	64.486468 
3136.768044  	64.199003 
3138.204951  	63.928486 
3139.641858  	63.588922 
3141.078765  	63.331694 
3142.515672  	63.022728 
3143.952579  	62.698563 
3145.389486  	62.449799 
3146.826393  	62.129605 
3148.263300  	61.851994 
3149.700207  	61.584418 
3151.137114  	61.252609 
3152.574021  	61.008675 
3154.010928  	60.722509 
3155.447835  	60.415256 
3156.884742  	60.170741 
3158.321649  	59.837956 
3159.758557  	59.546935 
3161.195464  	59.274825 
3162.632371  	58.947949 
3164.069278  	58.739839 
3165.506185  	58.484862 
3166.943092  	58.183213 
3168.379999  	57.959232 
3169.816906  	57.658507 
3171.253813  	57.420860 
3172.690720  	57.196556 
3174.127627  	56.851195 
3175.564534  	56.635439 
3177.001441  	56.416837 
3178.438348  	56.142560 
3179.875255  	55.967860 
3181.312162  	55.683748 
3182.749069  	55.401147 
3184.185976  	55.204259 
3185.622883  	54.953782 
3187.059790  	54.793735 
3188.496697  	54.588047 
3189.933604  	54.300815 
3191.370511  	54.108583 
3192.807418  	53.857891 
3194.244325  	53.666890 
3195.681232  	53.539336 
3197.118139  	53.283471 
3198.555046  	53.121830 
3199.991953  	52.958570 
3201.428860  	52.732964 
3202.865767  	52.620568 
3204.302674  	52.405015 
3205.739581  	52.208229 
3207.176488  	52.099325 
3208.613395  	51.853440 
3210.050303  	51.723626 
3211.487210  	51.620355 
3212.924117  	51.393928 
3214.361024  	51.305713 
3215.797931  	51.167473 
3217.234838  	51.000667 
3218.671745  	50.945828 
3220.108652  	50.773736 
3221.545559  	50.638214 
3222.982466  	50.545255 
3224.419373  	50.404273 
3225.856280  	50.379278 
3227.293187  	50.256188 
3228.730094  	50.115506 
3230.167001  	50.111845 
3231.603908  	49.966758 
3233.040815  	49.850700 
3234.477722  	49.793003 
3235.914629  	49.645249 
3237.351536  	49.617180 
3238.788443  	49.568731 
3240.225350  	49.500428 
3241.662257  	49.509109 
3243.099164  	49.384182 
3244.536071  	49.343879 
3245.972978  	49.357636 
3247.409885  	49.240075 
3248.846792  	49.256712 
3250.283699  	49.207613 
3251.720606  	49.075908 
3253.157513  	49.106419 
3254.594420  	49.041422 
3256.031327  	49.008136 
3257.468234  	49.049937 
3258.905142  	48.947274 
3260.342049  	48.970253 
3261.778956  	48.979689 
3263.215863  	48.861070 
3264.652770  	48.898901 
3266.089677  	48.893700 
3267.526584  	48.843286 
3268.963491  	48.845787 
3270.400398  	48.767438 
3271.837305  	48.776805 
3273.274212  	48.781136 
3274.711119  	48.727807 
3276.148026  	48.779303 
3277.584933  	48.733972 
3279.021840  	48.717988 
3280.458747  	48.777635 
3281.895654  	48.691807 
3283.332561  	48.711035 
3284.769468  	48.745741 
3286.206375  	48.655349 
3287.643282  	48.676102 
3289.080189  	48.659963 
3290.517096  	48.649271 
3291.954003  	48.689144 
3293.390910  	48.595291 
3294.827817  	48.625257 
3296.264724  	48.689315 
3297.701631  	48.635143 
3299.138538  	48.685884 
3300.575445  	48.659398 
3302.012352  	48.618477 
3303.449259  	48.664651 
3304.886166  	48.565713 
3306.323073  	48.562011 
3307.759980  	48.603676 
3309.196888  	48.520846 
3310.633795  	48.572941 
3312.070702  	48.561961 
3313.507609  	48.519363 
3314.944516  	48.619474 
3316.381423  	48.551527 
3317.818330  	48.487804 
3319.255237  	48.522078 
3320.692144  	48.491098 
3322.129051  	48.564425 
3323.565958  	48.554006 
3325.002865  	48.476281 
3326.439772  	48.547343 
3327.876679  	48.506527 
3329.313586  	48.468858 
3330.750493  	48.512412 
3332.187400  	48.489679 
3333.624307  	48.558284 
3335.061214  	48.560812 
3336.498121  	48.530681 
3337.935028  	48.618145 
3339.371935  	48.550862 
3340.808842  	48.541982 
3342.245749  	48.619056 
3343.682656  	48.542173 
3345.119563  	48.609408 
3346.556470  	48.680999 
3347.993377  	48.643763 
3349.430284  	48.719658 
3350.867191  	48.684119 
3352.304098  	48.693641 
3353.741005  	48.841120 
3355.177912  	48.841933 
3356.614819  	48.908014 
3358.051726  	48.951164 
3359.488634  	48.892810 
3360.925541  	48.995391 
3362.362448  	49.027347 
3363.799355  	49.054687 
3365.236262  	49.183607 
3366.673169  	49.177854 
3368.110076  	49.258152 
3369.546983  	49.347658 
3370.983890  	49.356408 
3372.420797  	49.522617 
3373.857704  	49.579701 
3375.294611  	49.607540 
3376.731518  	49.767490 
3378.168425  	49.795139 
3379.605332  	49.907937 
3381.042239  	50.050378 
3382.479146  	50.083671 
3383.916053  	50.290340 
3385.352960  	50.401480 
3386.789867  	50.431710 
3388.226774  	50.630794 
3389.663681  	50.707526 
3391.100588  	50.802129 
3392.537495  	50.964917 
3393.974402  	51.036051 
3395.411309  	51.257005 
3396.848216  	51.437995 
3398.285123  	51.491010 
3399.722030  	51.608698 
3401.158937  	51.669459 
3402.595844  	51.835256 
3404.032751  	52.076281 
3405.469658  	52.219678 
3406.906565  	52.440262 
3408.343473  	52.563187 
3409.780380  	52.651983 
3411.217287  	52.883991 
3412.654194  	52.997113 
3414.091101  	53.178238 
3415.528008  	53.427239 
3416.964915  	53.517882 
3418.401822  	53.709419 
3419.838729  	53.892162 
3421.275636  	54.063136 
3422.712543  	54.384388 
3424.149450  	54.545767 
3425.586357  	54.723816 
3427.023264  	54.961432 
3428.460171  	55.034722 
3429.897078  	55.268017 
3431.333985  	55.536518 
3432.770892  	55.671739 
3434.207799  	55.889455 
3435.644706  	56.029726 
3437.081613  	56.232798 
3438.518520  	56.536066 
3439.955427  	56.677258 
3441.392334  	56.915935 
3442.829241  	57.176503 
3444.266148  	57.342219 
3445.703055  	57.637685 
3447.139962  	57.813894 
3448.576869  	57.947392 
3450.013776  	58.218151 
3451.450683  	58.399051 
3452.887590  	58.648260 
3454.324497  	58.894590 
3455.761404  	59.067850 
3457.198311  	59.369023 
3458.635219  	59.516137 
3460.072126  	59.620294 
3461.509033  	59.937917 
3462.945940  	60.162083 
3464.382847  	60.360269 
3465.819754  	60.583965 
3467.256661  	60.756262 
3468.693568  	61.008396 
3470.130475  	61.173844 
3471.567382  	61.365916 
3473.004289  	61.687738 
3474.441196  	61.882699 
3475.878103  	62.130374 
3477.315010  	62.366269 
3478.751917  	62.465060 
3480.188824  	62.738428 
3481.625731  	62.998367 
3483.062638  	63.176010 
3484.499545  	63.449966 
3485.936452  	63.617945 
3487.373359  	63.848646 
3488.810266  	64.131714 
3490.247173  	64.262467 
3491.684080  	64.518549 
3493.120987  	64.766381 
3494.557894  	64.917998 
3495.994801  	65.212795 
3497.431708  	65.450070 
3498.868615  	65.619927 
3500.305522  	65.809189 
3501.742429  	65.951971 
3503.179336  	66.247354 
3504.616243  	66.576929 
3506.053150  	66.787823 
3507.490058  	66.999510 
3508.926965  	67.154013 
3510.363872  	67.390142 
3511.800779  	67.653340 
3513.237686  	67.781298 
3514.674593  	68.013348 
3516.111500  	68.267084 
3517.548407  	68.486630 
3518.985314  	68.788991 
3520.422221  	68.966939 
3521.859128  	69.159311 
3523.296035  	69.459686 
3524.732942  	69.613221 
3526.169849  	69.796171 
3527.606756  	70.038668 
3529.043663  	70.250034 
3530.480570  	70.529025 
3531.917477  	70.745327 
3533.354384  	70.954417 
3534.791291  	71.186835 
3536.228198  	71.362294 
3537.665105  	71.653587 
3539.102012  	71.930414 
3540.538919  	72.103882 
3541.975826  	72.316887 
3543.412733  	72.477373 
3544.849640  	72.707573 
3546.286547  	73.053133 
3547.723454  	73.273449 
3549.160361  	73.482868 
3550.597268  	73.657179 
3552.034175  	73.852563 
3553.471082  	74.197413 
3554.907989  	74.385549 
3556.344896  	74.553256 
3557.781804  	74.820390 
3559.218711  	74.994100 
3560.655618  	75.206840 
3562.092525  	75.472014 
3563.529432  	75.675243 
3564.966339  	75.912170 
3566.403246  	76.154258 
3567.840153  	76.399402 
3569.277060  	76.649597 
3570.713967  	76.787155 
3572.150874  	76.953699 
3573.587781  	77.131233 
3575.024688  	77.289275 
3576.461595  	77.591957 
3577.898502  	77.806503 
3579.335409  	77.952798 
3580.772316  	78.214222 
3582.209223  	78.417654 
3583.646130  	78.624361 
3585.083037  	78.837985 
3586.519944  	79.023778 
3587.956851  	79.368282 
3589.393758  	79.539164 
3590.830665  	79.599557 
3592.267572  	79.841943 
3593.704479  	80.053123 
3595.141386  	80.279828 
3596.578293  	80.522937 
3598.015200  	80.609927 
3599.452107  	80.812402 
3600.889014  	81.101086 
3602.325921  	81.298666 
3603.762828  	81.491289 
3605.199735  	81.651863 
3606.636642  	81.873459 
3608.073550  	82.144215 
3609.510457  	82.272888 
3610.947364  	82.442850 
3612.384271  	82.644104 
3613.821178  	82.845854 
3615.258085  	83.094284 
3616.694992  	83.217993 
3618.131899  	83.406916 
3619.568806  	83.700262 
3621.005713  	83.774986 
3622.442620  	83.921599 
3623.879527  	84.206290 
3625.316434  	84.440514 
3626.753341  	84.651408 
3628.190248  	84.914310 
3629.627155  	85.192352 
3631.064062  	85.287283 
3632.500969  	85.414752 
3633.937876  	85.731472 
3635.374783  	85.966180 
3636.811690  	86.140474 
3638.248597  	86.398685 
3639.685504  	86.554663 
3641.122411  	86.772962 
3642.559318  	87.060355 
3643.996225  	87.224135 
3645.433132  	87.516101 
3646.870039  	87.856628 
3648.306946  	88.000727 
3649.743853  	88.304288 
3651.180760  	88.558259 
3652.617667  	88.745109 
3654.054574  	89.080457 
3655.491481  	89.444710 
3656.928389  	89.739199 
3658.365296  	89.846498 
3659.802203  	89.963544 
3661.239110  	90.235004 
3662.676017  	90.534312 
3664.112924  	90.815681 
3665.549831  	91.047359 
3666.986738  	91.252774 
3668.423645  	91.481177 
3669.860552  	91.678234 
3671.297459  	91.811122 
3672.734366  	92.078761 
3674.171273  	92.391830 
3675.608180  	92.710026 
3677.045087  	92.842672 
3678.481994  	92.982668 
3679.918901  	93.223724 
3681.355808  	93.389930 
3682.792715  	93.577747 
3684.229622  	93.767882 
3685.666529  	93.895910 
3687.103436  	94.127032 
3688.540343  	94.368721 
3689.977250  	94.345850 
3691.414157  	94.436769 
3692.851064  	94.585433 
3694.287971  	94.677848 
3695.724878  	94.856367 
3697.161785  	94.979292 
3698.598692  	95.083429 
3700.035599  	95.252084 
3701.472506  	95.348908 
3702.909413  	95.394564 
3704.346320  	95.452379 
3705.783227  	95.479622 
3707.220135  	95.588108 
3708.657042  	95.687163 
3710.093949  	95.716031 
3711.530856  	95.769171 
3712.967763  	95.765721 
3714.404670  	95.754422 
3715.841577  	95.811193 
3717.278484  	95.902619 
3718.715391  	96.039134 
3720.152298  	96.115447 
3721.589205  	96.139917 
3723.026112  	96.176464 
3724.463019  	96.200698 
3725.899926  	96.275204 
3727.336833  	96.276018 
3728.773740  	96.210669 
3730.210647  	96.312640 
3731.647554  	96.426706 
3733.084461  	96.412273 
3734.521368  	96.456079 
3735.958275  	96.398284 
3737.395182  	96.195435 
3738.832089  	96.272287 
3740.268996  	96.381223 
3741.705903  	96.454634 
3743.142810  	96.602607 
3744.579717  	96.675699 
3746.016624  	96.350648 
3747.453531  	96.381581 
3748.890438  	96.577878 
3750.327345  	96.649277 
3751.764252  	96.612257 
3753.201159  	96.569178 
3754.638066  	96.546452 
3756.074973  	96.637667 
3757.511881  	96.682271 
3758.948788  	96.632503 
3760.385695  	96.670556 
3761.822602  	96.619411 
3763.259509  	96.577287 
3764.696416  	96.724468 
3766.133323  	96.733373 
3767.570230  	96.672763 
3769.007137  	96.804202 
3770.444044  	96.744334 
3771.880951  	96.584875 
3773.317858  	96.660021 
3774.754765  	96.757204 
3776.191672  	96.815160 
3777.628579  	96.835869 
3779.065486  	96.800254 
3780.502393  	96.709285 
3781.939300  	96.676245 
3783.376207  	96.772688 
3784.813114  	96.830472 
3786.250021  	96.767460 
3787.686928  	96.793174 
3789.123835  	96.839021 
3790.560742  	96.844418 
3791.997649  	96.897311 
3793.434556  	96.860448 
3794.871463  	96.869726 
3796.308370  	96.920022 
3797.745277  	96.691272 
3799.182184  	96.690783 
3800.619091  	96.990826 
3802.055998  	96.941636 
3803.492905  	96.662722 
3804.929812  	96.850505 
3806.366720  	97.148096 
3807.803627  	97.087286 
3809.240534  	96.803091 
3810.677441  	96.837587 
3812.114348  	96.900420 
3813.551255  	96.921943 
3814.988162  	97.002970 
3816.425069  	96.923487 
3817.861976  	96.802132 
3819.298883  	96.982276 
3820.735790  	97.130687 
3822.172697  	96.929666 
3823.609604  	96.835848 
3825.046511  	96.925321 
3826.483418  	96.976114 
3827.920325  	96.915649 
3829.357232  	96.914134 
3830.794139  	96.987144 
3832.231046  	96.970859 
3833.667953  	96.937985 
3835.104860  	96.971220 
3836.541767  	97.002358 
3837.978674  	97.038872 
3839.415581  	97.019067 
3840.852488  	96.951380 
3842.289395  	96.972967 
3843.726302  	96.992717 
3845.163209  	96.971825 
3846.600116  	96.959215 
3848.037023  	96.952780 
3849.473930  	97.001969 
3850.910837  	97.111685 
3852.347744  	97.222694 
3853.784651  	97.096285 
3855.221558  	96.888084 
3856.658466  	96.963281 
3858.095373  	96.973730 
3859.532280  	97.027229 
3860.969187  	97.175650 
3862.406094  	97.123467 
3863.843001  	96.957883 
3865.279908  	96.899806 
3866.716815  	96.829792 
3868.153722  	96.999052 
3869.590629  	97.256332 
3871.027536  	97.019792 
3872.464443  	96.968721 
3873.901350  	97.131512 
3875.338257  	97.005546 
3876.775164  	96.999010 
3878.212071  	97.187405 
3879.648978  	97.263219 
3881.085885  	97.106061 
3882.522792  	96.935501 
3883.959699  	97.025283 
3885.396606  	97.153173 
3886.833513  	96.994699 
3888.270420  	96.962551 
3889.707327  	97.099368 
3891.144234  	97.152545 
3892.581141  	97.089223 
3894.018048  	97.040252 
3895.454955  	97.054852 
3896.891862  	97.136749 
3898.328769  	97.176185 
3899.765676  	97.074317 
3901.202583  	96.963586 
3902.639490  	97.017333 
3904.076397  	97.096439 
3905.513305  	97.009608 
3906.950212  	97.015553 
3908.387119  	97.112481 
3909.824026  	97.124670 
3911.260933  	97.083376 
3912.697840  	97.029022 
3914.134747  	97.029773 
3915.571654  	97.105216 
3917.008561  	97.062794 
3918.445468  	96.960330 
3919.882375  	96.986421 
3921.319282  	96.978563 
3922.756189  	97.024338 
3924.193096  	97.136759 
3925.630003  	97.091883 
3927.066910  	97.010254 
3928.503817  	97.046488 
3929.940724  	97.079831 
3931.377631  	97.070907 
3932.814538  	97.005203 
3934.251445  	96.953470 
3935.688352  	97.024150 
3937.125259  	97.087249 
3938.562166  	97.066446 
3939.999073  	97.060895 
3941.435980  	97.094729 
3942.872887  	97.022918 
3944.309794  	96.918437 
3945.746701  	96.980326 
3947.183608  	97.046652 
3948.620515  	97.022908 
3950.057422  	97.016078 
3951.494329  	96.997714 
3952.931236  	96.978563 
3954.368143  	97.027005 
3955.805051  	97.075710 
3957.241958  	97.081278 
3958.678865  	97.073409 
3960.115772  	97.017300 
3961.552679  	96.995771 
3962.989586  	96.970481 
3964.426493  	96.963686 
3965.863400  	97.000022 
3967.300307  	96.997410 
3968.737214  	97.001510 
3970.174121  	97.017797 
3971.611028  	97.011768 
3973.047935  	97.035190 
3974.484842  	97.010586 
3975.921749  	96.975225 
3977.358656  	97.024999 
3978.795563  	97.025031 
3980.232470  	97.007437 
3981.669377  	97.037588 
3983.106284  	97.020077 
3984.543191  	97.010596 
3985.980098  	97.027560 
3987.417005  	97.037903 
3988.853912  	97.060693 
3990.290819  	97.016431 
3991.727726  	96.981338 
3993.164633  	97.040093 
3994.601540  	97.057330 
3996.038447  	97.054258 
3997.475354  	97.069298 
3998.912261  	97.049311 
4000.349168  	97.048943 