##TITLE=No Description
##DATA TYPE=INFRARED SPECTRUM
##XUNITS=1/CM
##YUNITS=%T
399.460154  	33.843856 
400.897061  	31.567729 
402.333968  	31.681582 
403.770875  	31.413227 
405.207782  	30.929607 
406.644689  	32.125550 
408.081596  	31.917396 
409.518503  	32.186336 
410.955410  	32.612705 
412.392317  	31.359552 
413.829224  	31.014123 
415.266131  	30.987243 
416.703038  	30.947400 
418.139945  	32.510049 
419.576852  	31.674361 
421.013759  	30.848101 
422.450666  	31.631418 
423.887574  	31.133379 
425.324481  	30.774570 
426.761388  	30.678860 
428.198295  	30.844438 
429.635202  	31.640486 
431.072109  	31.361582 
432.509016  	31.240537 
433.945923  	31.995356 
435.382830  	31.761109 
436.819737  	31.314455 
438.256644  	31.060793 
439.693551  	31.033281 
441.130458  	31.882014 
442.567365  	31.528301 
444.004272  	31.191638 
445.441179  	31.837347 
446.878086  	31.543331 
448.314993  	31.898018 
449.751900  	32.166441 
451.188807  	31.316730 
452.625714  	31.675563 
454.062621  	32.338967 
455.499528  	32.303973 
456.936435  	32.752611 
458.373342  	32.612556 
459.810249  	32.107049 
461.247156  	31.708985 
462.684063  	31.303156 
464.120970  	31.742895 
465.557877  	32.077757 
466.994784  	31.935949 
468.431691  	31.912550 
469.868598  	31.835185 
471.305505  	32.110869 
472.742413  	32.241272 
474.179320  	31.914403 
475.616227  	31.962966 
477.053134  	31.725269 
478.490041  	31.600909 
479.926948  	32.009252 
481.363855  	31.817833 
482.800762  	31.763332 
484.237669  	31.888234 
485.674576  	31.394974 
487.111483  	31.455802 
488.548390  	31.944869 
489.985297  	32.120703 
491.422204  	32.343123 
492.859111  	32.071451 
494.296018  	31.600755 
495.732925  	31.847841 
497.169832  	32.111399 
498.606739  	31.921954 
500.043646  	31.945446 
501.480553  	32.415518 
502.917460  	32.529648 
504.354367  	32.161962 
505.791274  	32.103675 
507.228181  	32.179108 
508.665088  	32.316653 
510.101995  	32.653957 
511.538902  	32.614715 
512.975809  	32.585462 
514.412716  	32.910552 
515.849623  	32.903681 
517.286530  	32.949317 
518.723437  	33.248099 
520.160344  	33.103959 
521.597251  	32.822365 
523.034159  	32.714521 
524.471066  	32.834074 
525.907973  	33.081971 
527.344880  	33.034490 
528.781787  	33.061567 
530.218694  	33.232106 
531.655601  	33.187079 
533.092508  	33.301377 
534.529415  	33.437956 
535.966322  	33.276895 
537.403229  	33.270851 
538.840136  	33.439506 
540.277043  	33.578475 
541.713950  	33.668624 
543.150857  	33.669152 
544.587764  	33.781681 
546.024671  	33.905501 
547.461578  	33.864879 
548.898485  	33.947863 
550.335392  	34.144042 
551.772299  	34.314905 
553.209206  	34.436925 
554.646113  	34.465592 
556.083020  	34.488043 
557.519927  	34.460040 
558.956834  	34.487853 
560.393741  	34.721954 
561.830648  	34.890593 
563.267555  	34.964064 
564.704462  	35.025649 
566.141369  	34.943305 
567.578276  	34.957072 
569.015183  	35.155685 
570.452090  	35.284436 
571.888997  	35.393171 
573.325905  	35.479220 
574.762812  	35.510398 
576.199719  	35.608986 
577.636626  	35.709600 
579.073533  	35.802688 
580.510440  	35.991885 
581.947347  	36.178707 
583.384254  	36.285679 
584.821161  	36.354892 
586.258068  	36.436259 
587.694975  	36.535955 
589.131882  	36.616087 
590.568789  	36.690672 
592.005696  	36.792703 
593.442603  	36.920628 
594.879510  	37.050081 
596.316417  	37.171140 
597.753324  	37.305352 
599.190231  	37.388876 
600.627138  	37.427251 
602.064045  	37.582100 
603.500952  	37.784230 
604.937859  	37.890603 
606.374766  	37.949793 
607.811673  	38.048669 
609.248580  	38.224137 
610.685487  	38.376152 
612.122394  	38.446047 
613.559301  	38.558608 
614.996208  	38.703001 
616.433115  	38.859059 
617.870022  	39.082383 
619.306929  	39.245414 
620.743836  	39.345582 
622.180744  	39.445383 
623.617651  	39.516463 
625.054558  	39.683481 
626.491465  	39.891271 
627.928372  	39.967301 
629.365279  	40.073458 
630.802186  	40.261957 
632.239093  	40.421545 
633.676000  	40.578435 
635.112907  	40.720481 
636.549814  	40.861460 
637.986721  	41.023826 
639.423628  	41.165582 
640.860535  	41.309881 
642.297442  	41.454765 
643.734349  	41.579493 
645.171256  	41.736264 
646.608163  	41.907241 
648.045070  	42.048356 
649.481977  	42.194464 
650.918884  	42.356329 
652.355791  	42.508974 
653.792698  	42.662722 
655.229605  	42.842220 
656.666512  	43.020854 
658.103419  	43.203496 
659.540326  	43.384679 
660.977233  	43.536688 
662.414140  	43.673964 
663.851047  	43.850750 
665.287954  	43.993159 
666.724861  	44.108267 
668.161768  	44.363032 
669.598675  	44.640266 
671.035582  	44.762438 
672.472490  	44.921773 
673.909397  	45.135159 
675.346304  	45.327905 
676.783211  	45.505277 
678.220118  	45.700421 
679.657025  	45.905987 
681.093932  	46.086094 
682.530839  	46.238165 
683.967746  	46.408313 
685.404653  	46.612157 
686.841560  	46.810477 
688.278467  	46.999962 
689.715374  	47.157076 
691.152281  	47.281187 
692.589188  	47.427075 
694.026095  	47.645043 
695.463002  	47.878298 
696.899909  	48.089854 
698.336816  	48.295539 
699.773723  	48.493919 
701.210630  	48.682201 
702.647537  	48.867309 
704.084444  	49.095657 
705.521351  	49.296608 
706.958258  	49.484233 
708.395165  	49.680264 
709.832072  	49.864303 
711.268979  	50.027461 
712.705886  	50.259634 
714.142793  	50.548172 
715.579700  	50.828958 
717.016607  	51.028061 
718.453514  	51.173609 
719.890421  	51.322313 
721.327328  	51.530650 
722.764236  	51.785445 
724.201143  	52.029618 
725.638050  	52.224010 
727.074957  	52.413984 
728.511864  	52.681585 
729.948771  	52.954309 
731.385678  	53.145637 
732.822585  	53.321325 
734.259492  	53.564217 
735.696399  	53.825168 
737.133306  	54.034617 
738.570213  	54.221372 
740.007120  	54.453943 
741.444027  	54.727338 
742.880934  	54.964491 
744.317841  	55.171205 
745.754748  	55.401633 
747.191655  	55.583858 
748.628562  	55.724755 
750.065469  	55.970162 
751.502376  	56.263787 
752.939283  	56.482140 
754.376190  	56.713068 
755.813097  	56.973688 
757.250004  	57.180904 
758.686911  	57.421061 
760.123818  	57.733148 
761.560725  	57.971492 
762.997632  	58.125632 
764.434539  	58.326089 
765.871446  	58.588475 
767.308353  	58.860535 
768.745260  	59.101678 
770.182167  	59.283012 
771.619075  	59.474630 
773.055982  	59.755355 
774.492889  	60.083269 
775.929796  	60.356117 
777.366703  	60.516348 
778.803610  	60.669800 
780.240517  	60.945756 
781.677424  	61.239165 
783.114331  	61.448279 
784.551238  	61.665524 
785.988145  	61.916947 
787.425052  	62.155405 
788.861959  	62.423659 
790.298866  	62.723066 
791.735773  	62.955987 
793.172680  	63.157445 
794.609587  	63.456083 
796.046494  	63.740328 
797.483401  	63.908862 
798.920308  	64.139727 
800.357215  	64.421402 
801.794122  	64.626507 
803.231029  	64.867684 
804.667936  	65.136741 
806.104843  	65.367695 
807.541750  	65.647270 
808.978657  	65.919539 
810.415564  	66.149101 
811.852471  	66.400036 
813.289378  	66.641463 
814.726285  	66.921671 
816.163192  	67.229598 
817.600099  	67.448204 
819.037006  	67.649337 
820.473913  	67.883100 
821.910821  	68.113412 
823.347728  	68.368158 
824.784635  	68.624223 
826.221542  	68.876369 
827.658449  	69.147448 
829.095356  	69.427591 
830.532263  	69.712056 
831.969170  	69.932049 
833.406077  	70.128240 
834.842984  	70.413835 
836.279891  	70.694047 
837.716798  	70.912705 
839.153705  	71.136979 
840.590612  	71.387251 
842.027519  	71.673239 
843.464426  	71.930940 
844.901333  	72.146970 
846.338240  	72.398600 
847.775147  	72.667487 
849.212054  	72.960305 
850.648961  	73.239703 
852.085868  	73.438643 
853.522775  	73.666753 
854.959682  	73.919001 
856.396589  	74.138838 
857.833496  	74.398091 
859.270403  	74.631832 
860.707310  	74.834409 
862.144217  	75.086802 
863.581124  	75.331761 
865.018031  	75.583001 
866.454938  	75.835969 
867.891845  	76.047518 
869.328752  	76.281704 
870.765660  	76.499552 
872.202567  	76.693568 
873.639474  	76.931358 
875.076381  	77.173081 
876.513288  	77.410097 
877.950195  	77.603682 
879.387102  	77.763069 
880.824009  	77.995150 
882.260916  	78.233023 
883.697823  	78.458889 
885.134730  	78.692303 
886.571637  	78.862316 
888.008544  	79.085647 
889.445451  	79.334298 
890.882358  	79.478582 
892.319265  	79.663354 
893.756172  	79.877299 
895.193079  	80.068412 
896.629986  	80.308215 
898.066893  	80.501025 
899.503800  	80.675232 
900.940707  	80.858380 
902.377614  	80.983187 
903.814521  	81.182416 
905.251428  	81.391880 
906.688335  	81.534491 
908.125242  	81.761906 
909.562149  	81.955226 
910.999056  	82.079393 
912.435963  	82.256039 
913.872870  	82.381053 
915.309777  	82.515188 
916.746684  	82.709185 
918.183591  	82.848991 
919.620498  	83.015011 
921.057406  	83.201667 
922.494313  	83.350638 
923.931220  	83.520656 
925.368127  	83.669526 
926.805034  	83.820780 
928.241941  	83.983063 
929.678848  	84.087019 
931.115755  	84.213168 
932.552662  	84.362144 
933.989569  	84.475204 
935.426476  	84.582435 
936.863383  	84.684715 
938.300290  	84.827951 
939.737197  	84.977216 
941.174104  	85.065424 
942.611011  	85.170685 
944.047918  	85.273136 
945.484825  	85.373715 
946.921732  	85.528343 
948.358639  	85.657715 
949.795546  	85.789110 
951.232453  	85.921032 
952.669360  	85.976302 
954.106267  	86.053889 
955.543174  	86.150829 
956.980081  	86.230962 
958.416988  	86.351784 
959.853895  	86.439240 
961.290802  	86.508244 
962.727709  	86.602423 
964.164616  	86.669396 
965.601523  	86.769910 
967.038430  	86.874675 
968.475337  	86.946674 
969.912244  	87.040360 
971.349152  	87.068312 
972.786059  	87.083227 
974.222966  	87.177925 
975.659873  	87.252365 
977.096780  	87.342354 
978.533687  	87.450474 
979.970594  	87.503660 
981.407501  	87.570667 
982.844408  	87.631849 
984.281315  	87.694425 
985.718222  	87.801444 
987.155129  	87.865881 
988.592036  	87.920724 
990.028943  	87.972973 
991.465850  	87.968146 
992.902757  	87.996067 
994.339664  	88.039761 
995.776571  	88.080788 
997.213478  	88.166331 
998.650385  	88.202641 
1000.087292  	88.220425 
1001.524199  	88.279828 
1002.961106  	88.295016 
1004.398013  	88.315558 
1005.834920  	88.374304 
1007.271827  	88.401592 
1008.708734  	88.425310 
1010.145641  	88.465705 
1011.582548  	88.507205 
1013.019455  	88.547954 
1014.456362  	88.602915 
1015.893269  	88.679534 
1017.330176  	88.717157 
1018.767083  	88.739603 
1020.203991  	88.795055 
1021.640898  	88.824505 
1023.077805  	88.850134 
1024.514712  	88.893936 
1025.951619  	88.917641 
1027.388526  	88.931911 
1028.825433  	88.921052 
1030.262340  	88.926339 
1031.699247  	88.959053 
1033.136154  	88.935053 
1034.573061  	88.933713 
1036.009968  	88.980159 
1037.446875  	88.977225 
1038.883782  	88.980665 
1040.320689  	89.008902 
1041.757596  	89.055745 
1043.194503  	89.137998 
1044.631410  	89.163622 
1046.068317  	89.181255 
1047.505224  	89.249716 
1048.942131  	89.275812 
1050.379038  	89.282930 
1051.815945  	89.288463 
1053.252852  	89.303512 
1054.689759  	89.376335 
1056.126666  	89.413577 
1057.563573  	89.427509 
1059.000480  	89.469978 
1060.437387  	89.463354 
1061.874294  	89.469593 
1063.311201  	89.507319 
1064.748108  	89.513691 
1066.185015  	89.546838 
1067.621922  	89.584258 
1069.058829  	89.608903 
1070.495737  	89.644988 
1071.932644  	89.643960 
1073.369551  	89.646131 
1074.806458  	89.650479 
1076.243365  	89.634537 
1077.680272  	89.659411 
1079.117179  	89.671169 
1080.554086  	89.667995 
1081.990993  	89.689967 
1083.427900  	89.688096 
1084.864807  	89.717125 
1086.301714  	89.732615 
1087.738621  	89.670022 
1089.175528  	89.662395 
1090.612435  	89.679077 
1092.049342  	89.668230 
1093.486249  	89.700610 
1094.923156  	89.716347 
1096.360063  	89.720449 
1097.796970  	89.736459 
1099.233877  	89.719957 
1100.670784  	89.739325 
1102.107691  	89.776956 
1103.544598  	89.786520 
1104.981505  	89.802954 
1106.418412  	89.792803 
1107.855319  	89.799937 
1109.292226  	89.835279 
1110.729133  	89.831270 
1112.166040  	89.853423 
1113.602947  	89.876099 
1115.039854  	89.854769 
1116.476761  	89.865244 
1117.913668  	89.871705 
1119.350575  	89.878060 
1120.787483  	89.911500 
1122.224390  	89.909671 
1123.661297  	89.918452 
1125.098204  	89.938771 
1126.535111  	89.939646 
1127.972018  	89.970491 
1129.408925  	89.978450 
1130.845832  	89.972947 
1132.282739  	89.990019 
1133.719646  	89.964307 
1135.156553  	89.966335 
1136.593460  	90.001242 
1138.030367  	89.979546 
1139.467274  	89.966514 
1140.904181  	89.954802 
1142.341088  	89.930585 
1143.777995  	89.954806 
1145.214902  	89.959854 
1146.651809  	89.944172 
1148.088716  	89.957043 
1149.525623  	89.955127 
1150.962530  	89.949358 
1152.399437  	89.941904 
1153.836344  	89.938384 
1155.273251  	89.961497 
1156.710158  	89.948775 
1158.147065  	89.918609 
1159.583972  	89.917161 
1161.020879  	89.913219 
1162.457786  	89.920784 
1163.894693  	89.919471 
1165.331600  	89.909465 
1166.768507  	89.936355 
1168.205414  	89.932588 
1169.642322  	89.894096 
1171.079229  	89.881332 
1172.516136  	89.871400 
1173.953043  	89.876302 
1175.389950  	89.891916 
1176.826857  	89.893871 
1178.263764  	89.896351 
1179.700671  	89.867681 
1181.137578  	89.846724 
1182.574485  	89.877284 
1184.011392  	89.881073 
1185.448299  	89.860510 
1186.885206  	89.851244 
1188.322113  	89.830349 
1189.759020  	89.819292 
1191.195927  	89.827285 
1192.632834  	89.847711 
1194.069741  	89.857386 
1195.506648  	89.822181 
1196.943555  	89.801107 
1198.380462  	89.813479 
1199.817369  	89.810803 
1201.254276  	89.812212 
1202.691183  	89.814197 
1204.128090  	89.802100 
1205.564997  	89.797077 
1207.001904  	89.796343 
1208.438811  	89.805205 
1209.875718  	89.804192 
1211.312625  	89.780660 
1212.749532  	89.774028 
1214.186439  	89.773910 
1215.623346  	89.776352 
1217.060253  	89.790888 
1218.497160  	89.782631 
1219.934068  	89.772701 
1221.370975  	89.776912 
1222.807882  	89.775852 
1224.244789  	89.783499 
1225.681696  	89.778736 
1227.118603  	89.767070 
1228.555510  	89.776094 
1229.992417  	89.777671 
1231.429324  	89.781453 
1232.866231  	89.777161 
1234.303138  	89.752204 
1235.740045  	89.768081 
1237.176952  	89.787364 
1238.613859  	89.761498 
1240.050766  	89.744268 
1241.487673  	89.733485 
1242.924580  	89.721206 
1244.361487  	89.723714 
1245.798394  	89.734373 
1247.235301  	89.764452 
1248.672208  	89.776106 
1250.109115  	89.749380 
1251.546022  	89.731830 
1252.982929  	89.720691 
1254.419836  	89.716760 
1255.856743  	89.719248 
1257.293650  	89.708843 
1258.730557  	89.712222 
1260.167464  	89.707721 
1261.604371  	89.688450 
1263.041278  	89.696885 
1264.478185  	89.695193 
1265.915092  	89.691126 
1267.351999  	89.707637 
1268.788907  	89.691145 
1270.225814  	89.675310 
1271.662721  	89.687787 
1273.099628  	89.686695 
1274.536535  	89.677199 
1275.973442  	89.649473 
1277.410349  	89.623855 
1278.847256  	89.631450 
1280.284163  	89.628414 
1281.721070  	89.624103 
1283.157977  	89.632954 
1284.594884  	89.633289 
1286.031791  	89.653876 
1287.468698  	89.680907 
1288.905605  	89.691998 
1290.342512  	89.698397 
1291.779419  	89.683651 
1293.216326  	89.676782 
1294.653233  	89.683872 
1296.090140  	89.675892 
1297.527047  	89.688875 
1298.963954  	89.706375 
1300.400861  	89.702479 
1301.837768  	89.713922 
1303.274675  	89.727189 
1304.711582  	89.733425 
1306.148489  	89.740687 
1307.585396  	89.752154 
1309.022303  	89.758750 
1310.459210  	89.766505 
1311.896117  	89.762377 
1313.333024  	89.765329 
1314.769931  	89.762393 
1316.206838  	89.760127 
1317.643745  	89.748347 
1319.080653  	89.743835 
1320.517560  	89.756925 
1321.954467  	89.777895 
1323.391374  	89.778282 
1324.828281  	89.774915 
1326.265188  	89.773298 
1327.702095  	89.764189 
1329.139002  	89.769376 
1330.575909  	89.765702 
1332.012816  	89.768371 
1333.449723  	89.777375 
1334.886630  	89.745015 
1336.323537  	89.731160 
1337.760444  	89.726413 
1339.197351  	89.698729 
1340.634258  	89.693830 
1342.071165  	89.694988 
1343.508072  	89.704229 
1344.944979  	89.731379 
1346.381886  	89.732507 
1347.818793  	89.710607 
1349.255700  	89.692518 
1350.692607  	89.673848 
1352.129514  	89.660901 
1353.566421  	89.647655 
1355.003328  	89.647869 
1356.440235  	89.634787 
1357.877142  	89.601863 
1359.314049  	89.597537 
1360.750956  	89.590306 
1362.187863  	89.542259 
1363.624770  	89.517490 
1365.061677  	89.526424 
1366.498584  	89.533168 
1367.935491  	89.504616 
1369.372399  	89.470151 
1370.809306  	89.436662 
1372.246213  	89.415759 
1373.683120  	89.367623 
1375.120027  	89.321859 
1376.556934  	89.281231 
1377.993841  	89.252431 
1379.430748  	89.227619 
1380.867655  	89.192072 
1382.304562  	89.184448 
1383.741469  	89.184198 
1385.178376  	89.171894 
1386.615283  	89.151843 
1388.052190  	89.112342 
1389.489097  	89.112506 
1390.926004  	89.142395 
1392.362911  	89.170405 
1393.799818  	89.165436 
1395.236725  	89.174411 
1396.673632  	89.193780 
1398.110539  	89.209768 
1399.547446  	89.189494 
1400.984353  	89.197424 
1402.421260  	89.254789 
1403.858167  	89.283461 
1405.295074  	89.302871 
1406.731981  	89.330796 
1408.168888  	89.323316 
1409.605795  	89.332266 
1411.042702  	89.337322 
1412.479609  	89.344140 
1413.916516  	89.371709 
1415.353423  	89.411354 
1416.790330  	89.419168 
1418.227238  	89.380218 
1419.664145  	89.320900 
1421.101052  	89.392665 
1422.537959  	89.488545 
1423.974866  	89.518141 
1425.411773  	89.513845 
1426.848680  	89.497845 
1428.285587  	89.477294 
1429.722494  	89.482390 
1431.159401  	89.517976 
1432.596308  	89.573786 
1434.033215  	89.590298 
1435.470122  	89.542207 
1436.907029  	89.485330 
1438.343936  	89.481288 
1439.780843  	89.527142 
1441.217750  	89.548809 
1442.654657  	89.542874 
1444.091564  	89.514427 
1445.528471  	89.500678 
1446.965378  	89.500953 
1448.402285  	89.523891 
1449.839192  	89.507192 
1451.276099  	89.471885 
1452.713006  	89.453824 
1454.149913  	89.456248 
1455.586820  	89.499357 
1457.023727  	89.532076 
1458.460634  	89.376112 
1459.897541  	89.335201 
1461.334448  	89.353453 
1462.771355  	89.390799 
1464.208262  	89.439316 
1465.645169  	89.431780 
1467.082076  	89.408990 
1468.518984  	89.375678 
1469.955891  	89.327251 
1471.392798  	89.304434 
1472.829705  	89.317338 
1474.266612  	89.353049 
1475.703519  	89.360592 
1477.140426  	89.262837 
1478.577333  	89.195247 
1480.014240  	89.198321 
1481.451147  	89.181304 
1482.888054  	89.196822 
1484.324961  	89.198717 
1485.761868  	89.157603 
1487.198775  	89.104909 
1488.635682  	89.014999 
1490.072589  	88.969755 
1491.509496  	88.999523 
1492.946403  	89.012966 
1494.383310  	89.011520 
1495.820217  	88.924615 
1497.257124  	88.789551 
1498.694031  	88.771489 
1500.130938  	88.764337 
1501.567845  	88.753218 
1503.004752  	88.751590 
1504.441659  	88.675887 
1505.878566  	88.611142 
1507.315473  	88.627633 
1508.752380  	88.534698 
1510.189287  	88.510401 
1511.626194  	88.417067 
1513.063101  	88.357158 
1514.500008  	88.365991 
1515.936915  	88.330289 
1517.373822  	88.328682 
1518.810730  	88.284559 
1520.247637  	88.120755 
1521.684544  	87.954034 
1523.121451  	87.946314 
1524.558358  	87.989201 
1525.995265  	88.014297 
1527.432172  	87.927265 
1528.869079  	87.813175 
1530.305986  	87.715823 
1531.742893  	87.620253 
1533.179800  	87.608196 
1534.616707  	87.544469 
1536.053614  	87.440103 
1537.490521  	87.360981 
1538.927428  	87.139124 
1540.364335  	86.903618 
1541.801242  	86.928204 
1543.238149  	86.878043 
1544.675056  	86.833542 
1546.111963  	86.659376 
1547.548870  	86.477668 
1548.985777  	86.371388 
1550.422684  	86.260146 
1551.859591  	86.175561 
1553.296498  	86.083932 
1554.733405  	85.885349 
1556.170312  	85.738556 
1557.607219  	85.618847 
1559.044126  	85.417799 
1560.481033  	85.251596 
1561.917940  	85.138211 
1563.354847  	85.008477 
1564.791754  	84.888185 
1566.228661  	84.695312 
1567.665569  	84.614729 
1569.102476  	84.534910 
1570.539383  	84.269143 
1571.976290  	84.161830 
1573.413197  	83.832018 
1574.850104  	83.611475 
1576.287011  	83.475690 
1577.723918  	83.250604 
1579.160825  	83.049198 
1580.597732  	82.859828 
1582.034639  	82.620931 
1583.471546  	82.432819 
1584.908453  	82.210326 
1586.345360  	81.951870 
1587.782267  	81.780898 
1589.219174  	81.444623 
1590.656081  	81.103491 
1592.092988  	80.815668 
1593.529895  	80.459259 
1594.966802  	80.163060 
1596.403709  	79.835313 
1597.840616  	79.415497 
1599.277523  	79.059346 
1600.714430  	78.618725 
1602.151337  	78.187947 
1603.588244  	77.804415 
1605.025151  	77.309845 
1606.462058  	76.848215 
1607.898965  	76.377642 
1609.335872  	75.831135 
1610.772779  	75.411220 
1612.209686  	74.947384 
1613.646593  	74.444192 
1615.083500  	74.005594 
1616.520407  	73.279670 
1617.957315  	72.743128 
1619.394222  	72.481546 
1620.831129  	72.018849 
1622.268036  	71.653205 
1623.704943  	71.166388 
1625.141850  	70.623925 
1626.578757  	70.425658 
1628.015664  	70.115693 
1629.452571  	69.857774 
1630.889478  	69.724522 
1632.326385  	69.422349 
1633.763292  	69.246095 
1635.200199  	69.207679 
1636.637106  	69.217562 
1638.074013  	69.425992 
1639.510920  	69.415022 
1640.947827  	69.461468 
1642.384734  	69.724727 
1643.821641  	69.842583 
1645.258548  	70.045708 
1646.695455  	70.449532 
1648.132362  	70.729194 
1649.569269  	71.091165 
1651.006176  	71.228219 
1652.443083  	71.286584 
1653.879990  	72.757666 
1655.316897  	72.869549 
1656.753804  	72.990249 
1658.190711  	73.400419 
1659.627618  	73.800074 
1661.064525  	74.233577 
1662.501432  	74.693676 
1663.938339  	75.170927 
1665.375246  	75.658900 
1666.812154  	76.055245 
1668.249061  	76.441333 
1669.685968  	76.981613 
1671.122875  	77.464900 
1672.559782  	77.968833 
1673.996689  	78.436064 
1675.433596  	78.872110 
1676.870503  	79.385996 
1678.307410  	79.807151 
1679.744317  	80.237543 
1681.181224  	80.826412 
1682.618131  	81.250439 
1684.055038  	81.693414 
1685.491945  	82.284448 
1686.928852  	82.588345 
1688.365759  	83.019719 
1689.802666  	83.526201 
1691.239573  	83.986190 
1692.676480  	84.448749 
1694.113387  	84.713689 
1695.550294  	84.944779 
1696.987201  	85.395704 
1698.424108  	85.681028 
1699.861015  	85.939716 
1701.297922  	86.387758 
1702.734829  	86.669564 
1704.171736  	86.979566 
1705.608643  	87.280454 
1707.045550  	87.567116 
1708.482457  	87.908554 
1709.919364  	88.163939 
1711.356271  	88.444596 
1712.793178  	88.740559 
1714.230085  	88.958771 
1715.666992  	89.257346 
1717.103900  	89.564350 
1718.540807  	89.794170 
1719.977714  	90.095080 
1721.414621  	90.338807 
1722.851528  	90.558849 
1724.288435  	90.814486 
1725.725342  	91.038825 
1727.162249  	91.299501 
1728.599156  	91.454972 
1730.036063  	91.555599 
1731.472970  	91.709835 
1732.909877  	91.823297 
1734.346784  	91.938138 
1735.783691  	92.130934 
1737.220598  	92.263501 
1738.657505  	92.406351 
1740.094412  	92.524680 
1741.531319  	92.592774 
1742.968226  	92.733491 
1744.405133  	92.877239 
1745.842040  	92.994128 
1747.278947  	93.135333 
1748.715854  	93.203523 
1750.152761  	93.315173 
1751.589668  	93.463794 
1753.026575  	93.550255 
1754.463482  	93.689798 
1755.900389  	93.748791 
1757.337296  	93.748865 
1758.774203  	93.843404 
1760.211110  	93.944819 
1761.648017  	94.037769 
1763.084924  	94.083353 
1764.521831  	94.085450 
1765.958738  	94.176106 
1767.395646  	94.256393 
1768.832553  	94.283396 
1770.269460  	94.390864 
1771.706367  	94.453206 
1773.143274  	94.419033 
1774.580181  	94.461586 
1776.017088  	94.535067 
1777.453995  	94.616222 
1778.890902  	94.657006 
1780.327809  	94.662124 
1781.764716  	94.704795 
1783.201623  	94.741903 
1784.638530  	94.786540 
1786.075437  	94.870892 
1787.512344  	94.897785 
1788.949251  	94.951887 
1790.386158  	95.011397 
1791.823065  	95.019187 
1793.259972  	95.027781 
1794.696879  	95.060470 
1796.133786  	95.079788 
1797.570693  	95.118871 
1799.007600  	95.139629 
1800.444507  	95.183451 
1801.881414  	95.202147 
1803.318321  	95.218468 
1804.755228  	95.266405 
1806.192135  	95.285045 
1807.629042  	95.289335 
1809.065949  	95.362993 
1810.502856  	95.391896 
1811.939763  	95.406663 
1813.376670  	95.411284 
1814.813577  	95.418580 
1816.250485  	95.481663 
1817.687392  	95.520647 
1819.124299  	95.513552 
1820.561206  	95.521076 
1821.998113  	95.500493 
1823.435020  	95.489697 
1824.871927  	95.489724 
1826.308834  	95.493522 
1827.745741  	95.591814 
1829.182648  	95.669343 
1830.619555  	95.616274 
1832.056462  	95.602008 
1833.493369  	95.620148 
1834.930276  	95.669039 
1836.367183  	95.739087 
1837.804090  	95.744112 
1839.240997  	95.763387 
1840.677904  	95.796553 
1842.114811  	95.814602 
1843.551718  	95.834903 
1844.988625  	95.745672 
1846.425532  	95.763316 
1847.862439  	95.859406 
1849.299346  	95.843510 
1850.736253  	95.822887 
1852.173160  	95.828293 
1853.610067  	95.803651 
1855.046974  	95.844905 
1856.483881  	95.863780 
1857.920788  	95.858522 
1859.357695  	95.886330 
1860.794602  	95.840727 
1862.231509  	95.872351 
1863.668416  	95.932342 
1865.105323  	95.917196 
1866.542231  	95.980448 
1867.979138  	96.028398 
1869.416045  	96.018941 
1870.852952  	96.046872 
1872.289859  	96.027575 
1873.726766  	96.041495 
1875.163673  	96.092549 
1876.600580  	96.024570 
1878.037487  	96.019152 
1879.474394  	96.035232 
1880.911301  	96.053919 
1882.348208  	96.083775 
1883.785115  	95.960078 
1885.222022  	95.945747 
1886.658929  	96.076760 
1888.095836  	96.073770 
1889.532743  	96.068294 
1890.969650  	96.035916 
1892.406557  	96.003515 
1893.843464  	96.018095 
1895.280371  	95.996841 
1896.717278  	96.039071 
1898.154185  	96.098346 
1899.591092  	96.026075 
1901.027999  	96.029224 
1902.464906  	96.068502 
1903.901813  	96.047077 
1905.338720  	96.095315 
1906.775627  	96.066933 
1908.212534  	96.030861 
1909.649441  	96.049555 
1911.086348  	95.981792 
1912.523255  	95.995650 
1913.960162  	96.081293 
1915.397069  	96.007514 
1916.833977  	96.056688 
1918.270884  	96.075692 
1919.707791  	96.009266 
1921.144698  	96.039742 
1922.581605  	96.082930 
1924.018512  	96.095539 
1925.455419  	96.119843 
1926.892326  	96.104184 
1928.329233  	96.146319 
1929.766140  	96.052004 
1931.203047  	95.969336 
1932.639954  	96.031716 
1934.076861  	96.002047 
1935.513768  	96.070058 
1936.950675  	96.103543 
1938.387582  	95.959343 
1939.824489  	96.045972 
1941.261396  	96.103651 
1942.698303  	96.007624 
1944.135210  	96.058722 
1945.572117  	96.038894 
1947.009024  	96.097282 
1948.445931  	96.156988 
1949.882838  	95.968359 
1951.319745  	95.974440 
1952.756652  	96.046313 
1954.193559  	96.049785 
1955.630466  	96.054573 
1957.067373  	96.007631 
1958.504280  	95.951326 
1959.941187  	95.829583 
1961.378094  	95.727769 
1962.815001  	95.890445 
1964.251908  	95.910806 
1965.688816  	95.866200 
1967.125723  	95.947383 
1968.562630  	95.760733 
1969.999537  	95.721604 
1971.436444  	95.854485 
1972.873351  	95.770640 
1974.310258  	95.780418 
1975.747165  	95.689832 
1977.184072  	95.442073 
1978.620979  	95.388064 
1980.057886  	95.361831 
1981.494793  	95.405828 
1982.931700  	95.444016 
1984.368607  	95.239253 
1985.805514  	95.231635 
1987.242421  	95.325481 
1988.679328  	95.283878 
1990.116235  	95.333734 
1991.553142  	95.275219 
1992.990049  	95.205953 
1994.426956  	95.277822 
1995.863863  	95.216581 
1997.300770  	95.253782 
1998.737677  	95.308131 
2000.174584  	95.093639 
2001.611491  	95.149267 
2003.048398  	95.102220 
2004.485305  	95.061050 
2005.922212  	95.309365 
2007.359119  	95.116045 
2008.796026  	95.033010 
2010.232933  	95.287302 
2011.669840  	95.379537 
2013.106747  	95.635854 
2014.543654  	95.338134 
2015.980562  	94.786463 
2017.417469  	95.078413 
2018.854376  	95.222802 
2020.291283  	94.990131 
2021.728190  	95.020897 
2023.165097  	94.975093 
2024.602004  	94.934841 
2026.038911  	94.970630 
2027.475818  	95.087828 
2028.912725  	95.216300 
2030.349632  	94.944489 
2031.786539  	94.863503 
2033.223446  	94.939166 
2034.660353  	94.647035 
2036.097260  	94.558571 
2037.534167  	94.587160 
2038.971074  	94.498894 
2040.407981  	94.417376 
2041.844888  	94.330730 
2043.281795  	94.712103 
2044.718702  	94.984421 
2046.155609  	94.549110 
2047.592516  	94.391498 
2049.029423  	94.350983 
2050.466330  	94.169939 
2051.903237  	94.345745 
2053.340144  	94.340905 
2054.777051  	94.200779 
2056.213958  	94.337791 
2057.650865  	94.293882 
2059.087772  	94.240328 
2060.524679  	94.380612 
2061.961586  	94.459174 
2063.398493  	94.520413 
2064.835401  	94.370324 
2066.272308  	94.228637 
2067.709215  	94.382541 
2069.146122  	94.370780 
2070.583029  	94.288225 
2072.019936  	94.322112 
2073.456843  	94.275660 
2074.893750  	94.333200 
2076.330657  	94.419409 
2077.767564  	94.367626 
2079.204471  	94.293544 
2080.641378  	94.193364 
2082.078285  	94.204495 
2083.515192  	94.258646 
2084.952099  	94.191732 
2086.389006  	94.194038 
2087.825913  	94.147036 
2089.262820  	94.033071 
2090.699727  	94.121726 
2092.136634  	94.251549 
2093.573541  	94.313770 
2095.010448  	94.282100 
2096.447355  	94.127881 
2097.884262  	94.148370 
2099.321169  	94.236295 
2100.758076  	94.160001 
2102.194983  	94.095863 
2103.631890  	94.099468 
2105.068797  	94.163717 
2106.505704  	94.151212 
2107.942611  	93.974947 
2109.379518  	93.904065 
2110.816425  	93.938436 
2112.253332  	94.027922 
2113.690239  	94.178595 
2115.127147  	94.137666 
2116.564054  	94.087621 
2118.000961  	94.195469 
2119.437868  	94.237922 
2120.874775  	94.263847 
2122.311682  	94.194973 
2123.748589  	94.107658 
2125.185496  	94.270744 
2126.622403  	94.297292 
2128.059310  	94.212664 
2129.496217  	94.401963 
2130.933124  	94.484714 
2132.370031  	94.425340 
2133.806938  	94.484380 
2135.243845  	94.504335 
2136.680752  	94.452440 
2138.117659  	94.289005 
2139.554566  	94.297933 
2140.991473  	94.598890 
2142.428380  	94.583283 
2143.865287  	94.502934 
2145.302194  	94.729234 
2146.739101  	94.836506 
2148.176008  	94.853311 
2149.612915  	94.734387 
2151.049822  	94.590067 
2152.486729  	94.826063 
2153.923636  	95.111445 
2155.360543  	95.380255 
2156.797450  	95.426979 
2158.234357  	94.748628 
2159.671264  	94.349854 
2161.108171  	94.650264 
2162.545078  	94.663020 
2163.981985  	94.533853 
2165.418893  	94.654229 
2166.855800  	94.816597 
2168.292707  	94.617821 
2169.729614  	94.342885 
2171.166521  	94.581650 
2172.603428  	94.874845 
2174.040335  	94.862722 
2175.477242  	94.839336 
2176.914149  	94.708429 
2178.351056  	94.660674 
2179.787963  	94.810714 
2181.224870  	94.858985 
2182.661777  	94.848945 
2184.098684  	94.744767 
2185.535591  	94.664873 
2186.972498  	94.791203 
2188.409405  	94.861258 
2189.846312  	94.835781 
2191.283219  	94.661410 
2192.720126  	94.443103 
2194.157033  	94.518440 
2195.593940  	94.597825 
2197.030847  	94.572173 
2198.467754  	94.538713 
2199.904661  	94.345661 
2201.341568  	94.452396 
2202.778475  	94.752780 
2204.215382  	94.625015 
2205.652289  	94.540075 
2207.089196  	94.645302 
2208.526103  	94.654468 
2209.963010  	94.713814 
2211.399917  	94.630157 
2212.836824  	94.452799 
2214.273732  	94.371052 
2215.710639  	94.272604 
2217.147546  	94.424422 
2218.584453  	94.740074 
2220.021360  	94.785030 
2221.458267  	94.684504 
2222.895174  	94.574309 
2224.332081  	94.578739 
2225.768988  	94.628132 
2227.205895  	94.581400 
2228.642802  	94.761850 
2230.079709  	94.925921 
2231.516616  	94.735814 
2232.953523  	94.673680 
2234.390430  	94.762228 
2235.827337  	94.762910 
2237.264244  	94.772887 
2238.701151  	94.763231 
2240.138058  	94.810994 
2241.574965  	94.891207 
2243.011872  	94.920002 
2244.448779  	94.970439 
2245.885686  	94.907449 
2247.322593  	94.905992 
2248.759500  	95.064539 
2250.196407  	95.059344 
2251.633314  	95.104041 
2253.070221  	95.209357 
2254.507128  	95.136207 
2255.944035  	95.142621 
2257.380942  	95.160974 
2258.817849  	95.054892 
2260.254756  	95.107370 
2261.691663  	95.168931 
2263.128570  	95.137956 
2264.565478  	95.198506 
2266.002385  	95.202507 
2267.439292  	95.143142 
2268.876199  	95.169095 
2270.313106  	95.215549 
2271.750013  	95.213863 
2273.186920  	95.210954 
2274.623827  	95.252603 
2276.060734  	95.230248 
2277.497641  	95.166224 
2278.934548  	95.205813 
2280.371455  	95.218351 
2281.808362  	95.184688 
2283.245269  	95.213707 
2284.682176  	95.180099 
2286.119083  	95.164157 
2287.555990  	95.251287 
2288.992897  	95.302191 
2290.429804  	95.336003 
2291.866711  	95.327728 
2293.303618  	95.274080 
2294.740525  	95.314013 
2296.177432  	95.349337 
2297.614339  	95.360000 
2299.051246  	95.261867 
2300.488153  	95.380370 
2301.925060  	95.377049 
2303.361967  	95.416956 
2304.798874  	95.428766 
2306.235781  	95.473507 
2307.672688  	95.430382 
2309.109595  	95.353862 
2310.546502  	95.408140 
2311.983409  	95.431964 
2313.420317  	95.464384 
2314.857224  	95.535802 
2316.294131  	95.502744 
2317.731038  	95.509577 
2319.167945  	95.502934 
2320.604852  	95.390319 
2322.041759  	95.371546 
2323.478666  	95.338952 
2324.915573  	95.306558 
2326.352480  	95.461985 
2327.789387  	95.626345 
2329.226294  	95.713241 
2330.663201  	95.773034 
2332.100108  	95.811122 
2333.537015  	95.887299 
2334.973922  	95.912215 
2336.410829  	95.925715 
2337.847736  	96.007313 
2339.284643  	95.968151 
2340.721550  	95.902318 
2342.158457  	95.953093 
2343.595364  	95.963478 
2345.032271  	95.941884 
2346.469178  	95.917100 
2347.906085  	95.904466 
2349.342992  	95.952815 
2350.779899  	95.999034 
2352.216806  	96.038794 
2353.653713  	96.073928 
2355.090620  	96.036198 
2356.527527  	96.067064 
2357.964434  	96.188012 
2359.401341  	96.179741 
2360.838248  	96.116573 
2362.275155  	96.186176 
2363.712063  	96.352619 
2365.148970  	96.434427 
2366.585877  	96.389552 
2368.022784  	96.348314 
2369.459691  	96.357847 
2370.896598  	96.426424 
2372.333505  	96.467912 
2373.770412  	96.442360 
2375.207319  	96.459480 
2376.644226  	96.431749 
2378.081133  	96.344712 
2379.518040  	96.348175 
2380.954947  	96.363622 
2382.391854  	96.342755 
2383.828761  	96.349157 
2385.265668  	96.343716 
2386.702575  	96.346926 
2388.139482  	96.369398 
2389.576389  	96.372957 
2391.013296  	96.396437 
2392.450203  	96.405816 
2393.887110  	96.405869 
2395.324017  	96.462589 
2396.760924  	96.485289 
2398.197831  	96.467772 
2399.634738  	96.478670 
2401.071645  	96.479488 
2402.508552  	96.497955 
2403.945459  	96.530123 
2405.382366  	96.525671 
2406.819273  	96.531763 
2408.256180  	96.555111 
2409.693087  	96.590131 
2411.129994  	96.644932 
2412.566901  	96.684984 
2414.003809  	96.693637 
2415.440716  	96.651560 
2416.877623  	96.614046 
2418.314530  	96.609492 
2419.751437  	96.555036 
2421.188344  	96.514164 
2422.625251  	96.526297 
2424.062158  	96.514217 
2425.499065  	96.537190 
2426.935972  	96.586153 
2428.372879  	96.603676 
2429.809786  	96.629427 
2431.246693  	96.608293 
2432.683600  	96.567425 
2434.120507  	96.586269 
2435.557414  	96.609533 
2436.994321  	96.644406 
2438.431228  	96.663428 
2439.868135  	96.640204 
2441.305042  	96.681731 
2442.741949  	96.746237 
2444.178856  	96.765387 
2445.615763  	96.780797 
2447.052670  	96.784727 
2448.489577  	96.793515 
2449.926484  	96.776503 
2451.363391  	96.726693 
2452.800298  	96.742459 
2454.237205  	96.778658 
2455.674112  	96.798630 
2457.111019  	96.828774 
2458.547926  	96.820088 
2459.984833  	96.833733 
2461.421740  	96.862936 
2462.858648  	96.832491 
2464.295555  	96.854896 
2465.732462  	96.913179 
2467.169369  	96.907387 
2468.606276  	96.894647 
2470.043183  	96.877295 
2471.480090  	96.860633 
2472.916997  	96.878735 
2474.353904  	96.915635 
2475.790811  	96.968599 
2477.227718  	96.979472 
2478.664625  	96.966686 
2480.101532  	96.983506 
2481.538439  	96.965411 
2482.975346  	96.969806 
2484.412253  	97.004369 
2485.849160  	96.975295 
2487.286067  	96.988270 
2488.722974  	97.040643 
2490.159881  	97.046594 
2491.596788  	97.064566 
2493.033695  	97.037223 
2494.470602  	96.988269 
2495.907509  	97.023389 
2497.344416  	97.046948 
2498.781323  	97.044835 
2500.218230  	97.050348 
2501.655137  	97.027042 
2503.092044  	97.023863 
2504.528951  	97.023916 
2505.965858  	97.012123 
2507.402765  	97.017876 
2508.839672  	96.993533 
2510.276579  	96.995328 
2511.713486  	97.025421 
2513.150394  	96.989729 
2514.587301  	96.982755 
2516.024208  	97.022075 
2517.461115  	97.019494 
2518.898022  	97.027459 
2520.334929  	97.042519 
2521.771836  	97.023371 
2523.208743  	96.994311 
2524.645650  	96.970160 
2526.082557  	96.988144 
2527.519464  	97.031111 
2528.956371  	97.049101 
2530.393278  	97.065619 
2531.830185  	97.084219 
2533.267092  	97.074362 
2534.703999  	97.029947 
2536.140906  	97.012360 
2537.577813  	97.047088 
2539.014720  	97.034879 
2540.451627  	96.992624 
2541.888534  	96.986831 
2543.325441  	96.957763 
2544.762348  	96.965836 
2546.199255  	97.054508 
2547.636162  	97.093449 
2549.073069  	97.081774 
2550.509976  	97.072320 
2551.946883  	97.048992 
2553.383790  	97.023003 
2554.820697  	96.986462 
2556.257604  	96.965872 
2557.694511  	96.984246 
2559.131418  	96.981474 
2560.568325  	96.953392 
2562.005232  	96.946675 
2563.442140  	96.990122 
2564.879047  	97.060663 
2566.315954  	97.077193 
2567.752861  	97.046305 
2569.189768  	97.016234 
2570.626675  	97.004747 
2572.063582  	97.037437 
2573.500489  	97.053059 
2574.937396  	97.019688 
2576.374303  	97.001592 
2577.811210  	96.971099 
2579.248117  	96.922180 
2580.685024  	96.928148 
2582.121931  	96.977804 
2583.558838  	97.011491 
2584.995745  	96.989631 
2586.432652  	96.936073 
2587.869559  	96.913636 
2589.306466  	96.926438 
2590.743373  	96.954216 
2592.180280  	96.974494 
2593.617187  	96.989221 
2595.054094  	97.011975 
2596.491001  	96.998638 
2597.927908  	96.973500 
2599.364815  	96.976355 
2600.801722  	96.971774 
2602.238629  	96.997260 
2603.675536  	97.020898 
2605.112443  	96.975584 
2606.549350  	96.961562 
2607.986257  	96.969533 
2609.423164  	96.942623 
2610.860071  	96.952100 
2612.296979  	96.954681 
2613.733886  	96.937424 
2615.170793  	96.963292 
2616.607700  	96.973307 
2618.044607  	96.976196 
2619.481514  	96.987062 
2620.918421  	96.958418 
2622.355328  	96.957616 
2623.792235  	96.978925 
2625.229142  	96.968175 
2626.666049  	96.975654 
2628.102956  	96.971975 
2629.539863  	96.943283 
2630.976770  	96.950674 
2632.413677  	96.961805 
2633.850584  	96.958674 
2635.287491  	96.960148 
2636.724398  	96.943450 
2638.161305  	96.921139 
2639.598212  	96.926179 
2641.035119  	96.955861 
2642.472026  	96.970137 
2643.908933  	96.950700 
2645.345840  	96.938475 
2646.782747  	96.938426 
2648.219654  	96.938608 
2649.656561  	96.953348 
2651.093468  	96.962395 
2652.530375  	96.964111 
2653.967282  	96.973684 
2655.404189  	96.975773 
2656.841096  	96.973567 
2658.278003  	96.965761 
2659.714910  	96.959887 
2661.151817  	96.977546 
2662.588725  	96.992112 
2664.025632  	96.997101 
2665.462539  	97.001711 
2666.899446  	96.988594 
2668.336353  	96.982932 
2669.773260  	96.990616 
2671.210167  	96.984333 
2672.647074  	96.978272 
2674.083981  	96.977640 
2675.520888  	96.984570 
2676.957795  	96.991790 
2678.394702  	96.973566 
2679.831609  	96.965636 
2681.268516  	96.980267 
2682.705423  	96.980570 
2684.142330  	96.976764 
2685.579237  	96.968995 
2687.016144  	96.964199 
2688.453051  	96.981235 
2689.889958  	96.981251 
2691.326865  	96.963518 
2692.763772  	96.952582 
2694.200679  	96.938863 
2695.637586  	96.940797 
2697.074493  	96.948981 
2698.511400  	96.941202 
2699.948307  	96.933753 
2701.385214  	96.913931 
2702.822121  	96.895295 
2704.259028  	96.901877 
2705.695935  	96.900141 
2707.132842  	96.897676 
2708.569749  	96.910706 
2710.006656  	96.912844 
2711.443564  	96.907183 
2712.880471  	96.900371 
2714.317378  	96.899604 
2715.754285  	96.909589 
2717.191192  	96.902013 
2718.628099  	96.886896 
2720.065006  	96.888887 
2721.501913  	96.893253 
2722.938820  	96.891424 
2724.375727  	96.875600 
2725.812634  	96.856572 
2727.249541  	96.861825 
2728.686448  	96.867925 
2730.123355  	96.858379 
2731.560262  	96.866185 
2732.997169  	96.884644 
2734.434076  	96.866737 
2735.870983  	96.825499 
2737.307890  	96.807916 
2738.744797  	96.795205 
2740.181704  	96.780163 
2741.618611  	96.801474 
2743.055518  	96.822209 
2744.492425  	96.799367 
2745.929332  	96.763356 
2747.366239  	96.742383 
2748.803146  	96.756879 
2750.240053  	96.769027 
2751.676960  	96.730834 
2753.113867  	96.716579 
2754.550774  	96.736332 
2755.987681  	96.699956 
2757.424588  	96.651312 
2758.861495  	96.647513 
2760.298402  	96.632930 
2761.735310  	96.608865 
2763.172217  	96.629147 
2764.609124  	96.661342 
2766.046031  	96.640080 
2767.482938  	96.591766 
2768.919845  	96.569691 
2770.356752  	96.555972 
2771.793659  	96.535753 
2773.230566  	96.517584 
2774.667473  	96.497127 
2776.104380  	96.478109 
2777.541287  	96.456190 
2778.978194  	96.445159 
2780.415101  	96.455985 
2781.852008  	96.446886 
2783.288915  	96.417228 
2784.725822  	96.382366 
2786.162729  	96.342094 
2787.599636  	96.343681 
2789.036543  	96.355576 
2790.473450  	96.320859 
2791.910357  	96.296082 
2793.347264  	96.287630 
2794.784171  	96.275078 
2796.221078  	96.277371 
2797.657985  	96.258811 
2799.094892  	96.232465 
2800.531799  	96.213924 
2801.968706  	96.157266 
2803.405613  	96.115262 
2804.842520  	96.114100 
2806.279427  	96.094674 
2807.716334  	96.069345 
2809.153241  	96.044739 
2810.590148  	96.022178 
2812.027056  	96.016170 
2813.463963  	95.985113 
2814.900870  	95.946837 
2816.337777  	95.930546 
2817.774684  	95.896876 
2819.211591  	95.865092 
2820.648498  	95.851052 
2822.085405  	95.833112 
2823.522312  	95.825884 
2824.959219  	95.808597 
2826.396126  	95.761775 
2827.833033  	95.715551 
2829.269940  	95.679347 
2830.706847  	95.645934 
2832.143754  	95.610300 
2833.580661  	95.586487 
2835.017568  	95.581663 
2836.454475  	95.566985 
2837.891382  	95.546553 
2839.328289  	95.520214 
2840.765196  	95.469837 
2842.202103  	95.427146 
2843.639010  	95.399519 
2845.075917  	95.376841 
2846.512824  	95.354599 
2847.949731  	95.301179 
2849.386638  	95.257693 
2850.823545  	95.247241 
2852.260452  	95.209915 
2853.697359  	95.172467 
2855.134266  	95.144767 
2856.571173  	95.092856 
2858.008080  	95.063994 
2859.444987  	95.040436 
2860.881895  	94.992734 
2862.318802  	94.966101 
2863.755709  	94.931317 
2865.192616  	94.879774 
2866.629523  	94.846199 
2868.066430  	94.799931 
2869.503337  	94.744780 
2870.940244  	94.697052 
2872.377151  	94.652853 
2873.814058  	94.626358 
2875.250965  	94.582561 
2876.687872  	94.515444 
2878.124779  	94.461482 
2879.561686  	94.407800 
2880.998593  	94.363494 
2882.435500  	94.329051 
2883.872407  	94.291510 
2885.309314  	94.271257 
2886.746221  	94.218248 
2888.183128  	94.127790 
2889.620035  	94.084161 
2891.056942  	94.054682 
2892.493849  	93.995737 
2893.930756  	93.936686 
2895.367663  	93.872090 
2896.804570  	93.807887 
2898.241477  	93.745225 
2899.678384  	93.683271 
2901.115291  	93.647456 
2902.552198  	93.598070 
2903.989105  	93.521042 
2905.426012  	93.452935 
2906.862919  	93.372638 
2908.299826  	93.301537 
2909.736733  	93.271487 
2911.173641  	93.233165 
2912.610548  	93.162788 
2914.047455  	93.062494 
2915.484362  	92.960063 
2916.921269  	92.906848 
2918.358176  	92.877760 
2919.795083  	92.831950 
2921.231990  	92.757773 
2922.668897  	92.656689 
2924.105804  	92.572681 
2925.542711  	92.506949 
2926.979618  	92.431791 
2928.416525  	92.359857 
2929.853432  	92.288716 
2931.290339  	92.222918 
2932.727246  	92.143622 
2934.164153  	92.026222 
2935.601060  	91.933821 
2937.037967  	91.862124 
2938.474874  	91.763345 
2939.911781  	91.688721 
2941.348688  	91.619275 
2942.785595  	91.516971 
2944.222502  	91.432922 
2945.659409  	91.352071 
2947.096316  	91.257940 
2948.533223  	91.171501 
2949.970130  	91.068163 
2951.407037  	90.971820 
2952.843944  	90.900900 
2954.280851  	90.815606 
2955.717758  	90.727945 
2957.154665  	90.641959 
2958.591572  	90.526659 
2960.028479  	90.399203 
2961.465387  	90.301415 
2962.902294  	90.234601 
2964.339201  	90.142118 
2965.776108  	90.012940 
2967.213015  	89.903001 
2968.649922  	89.806682 
2970.086829  	89.693093 
2971.523736  	89.575608 
2972.960643  	89.466412 
2974.397550  	89.353135 
2975.834457  	89.214157 
2977.271364  	89.084808 
2978.708271  	88.994847 
2980.145178  	88.889116 
2981.582085  	88.759596 
2983.018992  	88.619725 
2984.455899  	88.447329 
2985.892806  	88.295332 
2987.329713  	88.193388 
2988.766620  	88.087576 
2990.203527  	87.946339 
2991.640434  	87.778613 
2993.077341  	87.643833 
2994.514248  	87.537500 
2995.951155  	87.381184 
2997.388062  	87.212343 
2998.824969  	87.070418 
3000.261876  	86.921830 
3001.698783  	86.763379 
3003.135690  	86.593683 
3004.572597  	86.457112 
3006.009504  	86.349018 
3007.446411  	86.185218 
3008.883318  	86.025882 
3010.320226  	85.890773 
3011.757133  	85.701429 
3013.194040  	85.513623 
3014.630947  	85.336338 
3016.067854  	85.150243 
3017.504761  	85.005493 
3018.941668  	84.832331 
3020.378575  	84.627726 
3021.815482  	84.479921 
3023.252389  	84.337297 
3024.689296  	84.157688 
3026.126203  	83.951697 
3027.563110  	83.741371 
3029.000017  	83.577604 
3030.436924  	83.435584 
3031.873831  	83.269105 
3033.310738  	83.044063 
3034.747645  	82.795173 
3036.184552  	82.626438 
3037.621459  	82.455760 
3039.058366  	82.216624 
3040.495273  	82.018878 
3041.932180  	81.825863 
3043.369087  	81.599767 
3044.805994  	81.392049 
3046.242901  	81.171294 
3047.679808  	80.957639 
3049.116715  	80.743525 
3050.553622  	80.502202 
3051.990529  	80.291425 
3053.427436  	80.076566 
3054.864343  	79.867449 
3056.301250  	79.682385 
3057.738157  	79.440032 
3059.175064  	79.215218 
3060.611972  	78.999656 
3062.048879  	78.704456 
3063.485786  	78.448853 
3064.922693  	78.238268 
3066.359600  	78.023450 
3067.796507  	77.809793 
3069.233414  	77.518310 
3070.670321  	77.252495 
3072.107228  	77.045925 
3073.544135  	76.772927 
3074.981042  	76.521962 
3076.417949  	76.272599 
3077.854856  	75.977447 
3079.291763  	75.749093 
3080.728670  	75.494443 
3082.165577  	75.206229 
3083.602484  	74.967154 
3085.039391  	74.688864 
3086.476298  	74.409681 
3087.913205  	74.126549 
3089.350112  	73.818910 
3090.787019  	73.579266 
3092.223926  	73.307186 
3093.660833  	73.014240 
3095.097740  	72.777634 
3096.534647  	72.476605 
3097.971554  	72.171720 
3099.408461  	71.879887 
3100.845368  	71.552593 
3102.282275  	71.293142 
3103.719182  	70.995431 
3105.156089  	70.674615 
3106.592996  	70.448031 
3108.029903  	70.147961 
3109.466811  	69.816847 
3110.903718  	69.538970 
3112.340625  	69.233251 
3113.777532  	68.955117 
3115.214439  	68.634798 
3116.651346  	68.302197 
3118.088253  	68.051989 
3119.525160  	67.698905 
3120.962067  	67.337495 
3122.398974  	67.084225 
3123.835881  	66.800632 
3125.272788  	66.537557 
3126.709695  	66.223765 
3128.146602  	65.850264 
3129.583509  	65.578966 
3131.020416  	65.269294 
3132.457323  	64.944084 
3133.894230  	64.674507 
3135.331137  	64.331838 
3136.768044  	64.039177 
3138.204951  	63.761592 
3139.641858  	63.418704 
3141.078765  	63.158297 
3142.515672  	62.877011 
3143.952579  	62.571777 
3145.389486  	62.290094 
3146.826393  	61.922295 
3148.263300  	61.627146 
3149.700207  	61.370099 
3151.137114  	61.035886 
3152.574021  	60.768006 
3154.010928  	60.459541 
3155.447835  	60.139999 
3156.884742  	59.905336 
3158.321649  	59.590255 
3159.758557  	59.312523 
3161.195464  	59.065973 
3162.632371  	58.739751 
3164.069278  	58.500433 
3165.506185  	58.240231 
3166.943092  	57.936726 
3168.379999  	57.683755 
3169.816906  	57.357474 
3171.253813  	57.109042 
3172.690720  	56.894161 
3174.127627  	56.557456 
3175.564534  	56.317939 
3177.001441  	56.078574 
3178.438348  	55.810920 
3179.875255  	55.652142 
3181.312162  	55.394486 
3182.749069  	55.133916 
3184.185976  	54.927548 
3185.622883  	54.655653 
3187.059790  	54.477922 
3188.496697  	54.230719 
3189.933604  	53.907300 
3191.370511  	53.752040 
3192.807418  	53.548263 
3194.244325  	53.342177 
3195.681232  	53.198817 
3197.118139  	52.929252 
3198.555046  	52.729040 
3199.991953  	52.564159 
3201.428860  	52.349792 
3202.865767  	52.214004 
3204.302674  	51.990720 
3205.739581  	51.814470 
3207.176488  	51.749388 
3208.613395  	51.553228 
3210.050303  	51.412989 
3211.487210  	51.268357 
3212.924117  	51.027792 
3214.361024  	50.936003 
3215.797931  	50.813006 
3217.234838  	50.648893 
3218.671745  	50.546696 
3220.108652  	50.362309 
3221.545559  	50.281308 
3222.982466  	50.217479 
3224.419373  	50.035500 
3225.856280  	49.950049 
3227.293187  	49.832723 
3228.730094  	49.738516 
3230.167001  	49.720325 
3231.603908  	49.545216 
3233.040815  	49.452850 
3234.477722  	49.417861 
3235.914629  	49.292150 
3237.351536  	49.310133 
3238.788443  	49.261655 
3240.225350  	49.149087 
3241.662257  	49.152634 
3243.099164  	49.032418 
3244.536071  	48.944847 
3245.972978  	48.913956 
3247.409885  	48.798661 
3248.846792  	48.838694 
3250.283699  	48.829989 
3251.720606  	48.700802 
3253.157513  	48.671195 
3254.594420  	48.603914 
3256.031327  	48.627839 
3257.468234  	48.681337 
3258.905142  	48.580102 
3260.342049  	48.597142 
3261.778956  	48.586124 
3263.215863  	48.498955 
3264.652770  	48.532777 
3266.089677  	48.464508 
3267.526584  	48.436083 
3268.963491  	48.477240 
3270.400398  	48.370765 
3271.837305  	48.377164 
3273.274212  	48.398741 
3274.711119  	48.362662 
3276.148026  	48.438756 
3277.584933  	48.373892 
3279.021840  	48.338001 
3280.458747  	48.419435 
3281.895654  	48.359667 
3283.332561  	48.407712 
3284.769468  	48.444797 
3286.206375  	48.332886 
3287.643282  	48.352941 
3289.080189  	48.321800 
3290.517096  	48.290456 
3291.954003  	48.321894 
3293.390910  	48.187129 
3294.827817  	48.198286 
3296.264724  	48.291622 
3297.701631  	48.247617 
3299.138538  	48.302256 
3300.575445  	48.274596 
3302.012352  	48.208631 
3303.449259  	48.271380 
3304.886166  	48.232419 
3306.323073  	48.242727 
3307.759980  	48.249560 
3309.196888  	48.161997 
3310.633795  	48.241561 
3312.070702  	48.232332 
3313.507609  	48.184679 
3314.944516  	48.293904 
3316.381423  	48.238510 
3317.818330  	48.208605 
3319.255237  	48.252056 
3320.692144  	48.181234 
3322.129051  	48.246335 
3323.565958  	48.255131 
3325.002865  	48.176038 
3326.439772  	48.245587 
3327.876679  	48.224093 
3329.313586  	48.242962 
3330.750493  	48.318663 
3332.187400  	48.248391 
3333.624307  	48.286569 
3335.061214  	48.286544 
3336.498121  	48.198124 
3337.935028  	48.232642 
3339.371935  	48.168016 
3340.808842  	48.186862 
3342.245749  	48.326552 
3343.682656  	48.318950 
3345.119563  	48.388642 
3346.556470  	48.407982 
3347.993377  	48.358553 
3349.430284  	48.474618 
3350.867191  	48.453824 
3352.304098  	48.452467 
3353.741005  	48.571777 
3355.177912  	48.520978 
3356.614819  	48.594652 
3358.051726  	48.693459 
3359.488634  	48.651708 
3360.925541  	48.759496 
3362.362448  	48.797251 
3363.799355  	48.828118 
3365.236262  	48.964458 
3366.673169  	48.928876 
3368.110076  	49.007488 
3369.546983  	49.154026 
3370.983890  	49.163355 
3372.420797  	49.307849 
3373.857704  	49.399450 
3375.294611  	49.461871 
3376.731518  	49.628869 
3378.168425  	49.635003 
3379.605332  	49.722090 
3381.042239  	49.870277 
3382.479146  	49.877003 
3383.916053  	50.035052 
3385.352960  	50.167002 
3386.789867  	50.236823 
3388.226774  	50.432684 
3389.663681  	50.500317 
3391.100588  	50.593235 
3392.537495  	50.756573 
3393.974402  	50.831155 
3395.411309  	51.044110 
3396.848216  	51.217382 
3398.285123  	51.288803 
3399.722030  	51.428023 
3401.158937  	51.515052 
3402.595844  	51.744786 
3404.032751  	51.994227 
3405.469658  	52.044712 
3406.906565  	52.238896 
3408.343473  	52.423780 
3409.780380  	52.525590 
3411.217287  	52.750482 
3412.654194  	52.881338 
3414.091101  	53.085955 
3415.528008  	53.381429 
3416.964915  	53.486321 
3418.401822  	53.638510 
3419.838729  	53.801105 
3421.275636  	53.955322 
3422.712543  	54.250063 
3424.149450  	54.403986 
3425.586357  	54.573297 
3427.023264  	54.828239 
3428.460171  	54.945643 
3429.897078  	55.169746 
3431.333985  	55.404943 
3432.770892  	55.569901 
3434.207799  	55.842997 
3435.644706  	55.983954 
3437.081613  	56.152718 
3438.518520  	56.453357 
3439.955427  	56.611782 
3441.392334  	56.852124 
3442.829241  	57.107487 
3444.266148  	57.246369 
3445.703055  	57.526363 
3447.139962  	57.772059 
3448.576869  	57.974041 
3450.013776  	58.205833 
3451.450683  	58.338815 
3452.887590  	58.592663 
3454.324497  	58.854261 
3455.761404  	59.028904 
3457.198311  	59.310523 
3458.635219  	59.449816 
3460.072126  	59.580658 
3461.509033  	59.884326 
3462.945940  	60.059404 
3464.382847  	60.270246 
3465.819754  	60.515481 
3467.256661  	60.668017 
3468.693568  	60.945872 
3470.130475  	61.176741 
3471.567382  	61.386164 
3473.004289  	61.678046 
3474.441196  	61.838696 
3475.878103  	62.073550 
3477.315010  	62.329811 
3478.751917  	62.467846 
3480.188824  	62.778687 
3481.625731  	63.068520 
3483.062638  	63.257542 
3484.499545  	63.490072 
3485.936452  	63.587508 
3487.373359  	63.793122 
3488.810266  	64.111227 
3490.247173  	64.281893 
3491.684080  	64.549272 
3493.120987  	64.809205 
3494.557894  	64.996644 
3495.994801  	65.266470 
3497.431708  	65.416738 
3498.868615  	65.605060 
3500.305522  	65.911726 
3501.742429  	66.140720 
3503.179336  	66.440508 
3504.616243  	66.677219 
3506.053150  	66.815245 
3507.490058  	67.038767 
3508.926965  	67.191820 
3510.363872  	67.435628 
3511.800779  	67.727170 
3513.237686  	67.828898 
3514.674593  	68.077524 
3516.111500  	68.378376 
3517.548407  	68.564969 
3518.985314  	68.864512 
3520.422221  	69.071740 
3521.859128  	69.215900 
3523.296035  	69.488943 
3524.732942  	69.687730 
3526.169849  	69.928035 
3527.606756  	70.241751 
3529.043663  	70.485642 
3530.480570  	70.742944 
3531.917477  	70.929902 
3533.354384  	71.103619 
3534.791291  	71.356815 
3536.228198  	71.607740 
3537.665105  	71.904104 
3539.102012  	72.129679 
3540.538919  	72.314113 
3541.975826  	72.569735 
3543.412733  	72.758942 
3544.849640  	72.969116 
3546.286547  	73.262381 
3547.723454  	73.437358 
3549.160361  	73.625075 
3550.597268  	73.815153 
3552.034175  	73.975216 
3553.471082  	74.285409 
3554.907989  	74.563892 
3556.344896  	74.776821 
3557.781804  	75.030697 
3559.218711  	75.212352 
3560.655618  	75.421026 
3562.092525  	75.691419 
3563.529432  	75.939418 
3564.966339  	76.235555 
3566.403246  	76.401394 
3567.840153  	76.474052 
3569.277060  	76.682159 
3570.713967  	76.856452 
3572.150874  	77.099013 
3573.587781  	77.361446 
3575.024688  	77.524257 
3576.461595  	77.793649 
3577.898502  	78.062474 
3579.335409  	78.257441 
3580.772316  	78.460678 
3582.209223  	78.563498 
3583.646130  	78.779153 
3585.083037  	79.120293 
3586.519944  	79.364785 
3587.956851  	79.657476 
3589.393758  	79.756433 
3590.830665  	79.775337 
3592.267572  	80.018057 
3593.704479  	80.293008 
3595.141386  	80.574145 
3596.578293  	80.847620 
3598.015200  	80.973212 
3599.452107  	81.069242 
3600.889014  	81.132699 
3602.325921  	81.305955 
3603.762828  	81.675683 
3605.199735  	81.951069 
3606.636642  	82.204371 
3608.073550  	82.418091 
3609.510457  	82.345950 
3610.947364  	82.439571 
3612.384271  	82.687191 
3613.821178  	82.908382 
3615.258085  	83.307788 
3616.694992  	83.598812 
3618.131899  	83.715570 
3619.568806  	83.855781 
3621.005713  	83.975715 
3622.442620  	84.196527 
3623.879527  	84.512100 
3625.316434  	84.822652 
3626.753341  	85.060933 
3628.190248  	85.175727 
3629.627155  	85.348046 
3631.064062  	85.378621 
3632.500969  	85.525098 
3633.937876  	85.866481 
3635.374783  	86.173519 
3636.811690  	86.369209 
3638.248597  	86.672151 
3639.685504  	86.867681 
3641.122411  	86.995172 
3642.559318  	87.255229 
3643.996225  	87.517319 
3645.433132  	87.846095 
3646.870039  	88.322917 
3648.306946  	88.853095 
3649.743853  	89.089503 
3651.180760  	88.904097 
3652.617667  	88.933787 
3654.054574  	89.337332 
3655.491481  	89.610061 
3656.928389  	89.858081 
3658.365296  	90.097374 
3659.802203  	90.272678 
3661.239110  	90.557565 
3662.676017  	90.851690 
3664.112924  	91.043294 
3665.549831  	91.225867 
3666.986738  	91.461324 
3668.423645  	91.679761 
3669.860552  	91.820356 
3671.297459  	91.795272 
3672.734366  	91.945297 
3674.171273  	92.187752 
3675.608180  	92.474246 
3677.045087  	92.627864 
3678.481994  	92.840025 
3679.918901  	93.086129 
3681.355808  	93.205243 
3682.792715  	93.284988 
3684.229622  	93.503274 
3685.666529  	93.934434 
3687.103436  	94.371210 
3688.540343  	94.503052 
3689.977250  	94.250049 
3691.414157  	94.195013 
3692.851064  	94.274524 
3694.287971  	94.521206 
3695.724878  	94.851925 
3697.161785  	94.894616 
3698.598692  	94.803490 
3700.035599  	94.848854 
3701.472506  	94.846215 
3702.909413  	94.894951 
3704.346320  	95.098883 
3705.783227  	95.254750 
3707.220135  	95.392177 
3708.657042  	95.608249 
3710.093949  	95.851200 
3711.530856  	95.928327 
3712.967763  	95.683782 
3714.404670  	95.528702 
3715.841577  	95.585929 
3717.278484  	95.822555 
3718.715391  	96.075468 
3720.152298  	96.093320 
3721.589205  	96.079393 
3723.026112  	96.044652 
3724.463019  	95.915467 
3725.899926  	96.003506 
3727.336833  	96.103351 
3728.773740  	96.123907 
3730.210647  	96.324047 
3731.647554  	96.398936 
3733.084461  	96.202157 
3734.521368  	96.120382 
3735.958275  	95.985839 
3737.395182  	95.958023 
3738.832089  	96.124354 
3740.268996  	96.192699 
3741.705903  	96.252266 
3743.142810  	96.392421 
3744.579717  	96.445935 
3746.016624  	96.409707 
3747.453531  	96.619789 
3748.890438  	96.879195 
3750.327345  	96.772394 
3751.764252  	96.681878 
3753.201159  	96.681768 
3754.638066  	96.764611 
3756.074973  	96.946402 
3757.511881  	97.030660 
3758.948788  	96.944885 
3760.385695  	96.899960 
3761.822602  	96.940757 
3763.259509  	97.083910 
3764.696416  	97.161960 
3766.133323  	97.092712 
3767.570230  	97.084803 
3769.007137  	97.164796 
3770.444044  	97.181012 
3771.880951  	97.146007 
3773.317858  	97.152506 
3774.754765  	97.138067 
3776.191672  	97.154397 
3777.628579  	97.208637 
3779.065486  	97.265822 
3780.502393  	97.285298 
3781.939300  	97.255575 
3783.376207  	97.258849 
3784.813114  	97.203534 
3786.250021  	97.149644 
3787.686928  	97.249458 
3789.123835  	97.361794 
3790.560742  	97.409831 
3791.997649  	97.319280 
3793.434556  	97.183010 
3794.871463  	97.265100 
3796.308370  	97.289363 
3797.745277  	97.148347 
3799.182184  	97.324793 
3800.619091  	97.472333 
3802.055998  	97.201948 
3803.492905  	96.960250 
3804.929812  	97.163458 
3806.366720  	97.320149 
3807.803627  	97.188245 
3809.240534  	96.996058 
3810.677441  	97.121834 
3812.114348  	97.295385 
3813.551255  	97.520854 
3814.988162  	97.665905 
3816.425069  	97.308558 
3817.861976  	96.992968 
3819.298883  	97.365308 
3820.735790  	97.627763 
3822.172697  	97.319567 
3823.609604  	96.986390 
3825.046511  	97.144678 
3826.483418  	97.343609 
3827.920325  	97.318408 
3829.357232  	97.328937 
3830.794139  	97.437606 
3832.231046  	97.318030 
3833.667953  	97.204002 
3835.104860  	97.315361 
3836.541767  	97.413535 
3837.978674  	97.522920 
3839.415581  	97.573518 
3840.852488  	97.423322 
3842.289395  	97.261984 
3843.726302  	97.174104 
3845.163209  	97.240285 
3846.600116  	97.341065 
3848.037023  	97.392082 
3849.473930  	97.495614 
3850.910837  	97.644509 
3852.347744  	97.836575 
3853.784651  	97.866455 
3855.221558  	97.054457 
3856.658466  	97.085803 
3858.095373  	97.335508 
3859.532280  	97.494864 
3860.969187  	97.571717 
3862.406094  	97.443852 
3863.843001  	97.406921 
3865.279908  	97.459664 
3866.716815  	97.286975 
3868.153722  	97.466350 
3869.590629  	97.655350 
3871.027536  	97.306902 
3872.464443  	97.445121 
3873.901350  	97.687535 
3875.338257  	97.384360 
3876.775164  	97.366344 
3878.212071  	97.590053 
3879.648978  	97.598837 
3881.085885  	97.506618 
3882.522792  	97.445366 
3883.959699  	97.579542 
3885.396606  	97.575784 
3886.833513  	97.137922 
3888.270420  	97.155889 
3889.707327  	97.473904 
3891.144234  	97.606784 
3892.581141  	97.484872 
3894.018048  	97.277950 
3895.454955  	97.228576 
3896.891862  	97.352384 
3898.328769  	97.512821 
3899.765676  	97.628076 
3901.202583  	97.609128 
3902.639490  	97.576665 
3904.076397  	97.485992 
3905.513305  	97.155359 
3906.950212  	97.147381 
3908.387119  	97.400625 
3909.824026  	97.498841 
3911.260933  	97.519659 
3912.697840  	97.471628 
3914.134747  	97.365852 
3915.571654  	97.410971 
3917.008561  	97.436144 
3918.445468  	97.394212 
3919.882375  	97.458572 
3921.319282  	97.460177 
3922.756189  	97.481991 
3924.193096  	97.487298 
3925.630003  	97.298465 
3927.066910  	97.265022 
3928.503817  	97.394416 
3929.940724  	97.459710 
3931.377631  	97.478436 
3932.814538  	97.346192 
3934.251445  	97.251136 
3935.688352  	97.403849 
3937.125259  	97.507471 
3938.562166  	97.499141 
3939.999073  	97.499982 
3941.435980  	97.535147 
3942.872887  	97.539085 
3944.309794  	97.456751 
3945.746701  	97.449950 
3947.183608  	97.517162 
3948.620515  	97.511282 
3950.057422  	97.466598 
3951.494329  	97.458601 
3952.931236  	97.466446 
3954.368143  	97.487286 
3955.805051  	97.480882 
3957.241958  	97.416767 
3958.678865  	97.389662 
3960.115772  	97.432062 
3961.552679  	97.516208 
3962.989586  	97.527743 
3964.426493  	97.429249 
3965.863400  	97.393150 
3967.300307  	97.449577 
3968.737214  	97.515514 
3970.174121  	97.551340 
3971.611028  	97.553095 
3973.047935  	97.549160 
3974.484842  	97.513870 
3975.921749  	97.480683 
3977.358656  	97.512310 
3978.795563  	97.548861 
3980.232470  	97.598148 
3981.669377  	97.615530 
3983.106284  	97.525523 
3984.543191  	97.482957 
3985.980098  	97.505704 
3987.417005  	97.505008 
3988.853912  	97.551480 
3990.290819  	97.578344 
3991.727726  	97.537264 
3993.164633  	97.529491 
3994.601540  	97.518681 
3996.038447  	97.494251 
3997.475354  	97.505981 
3998.912261  	97.547844 
4000.349168  	97.602682 