##TITLE=No Description
##DATA TYPE=INFRARED SPECTRUM
##XUNITS=1/CM
##YUNITS=%T
399.460154  	32.696009 
400.897061  	30.760973 
402.333968  	30.996263 
403.770875  	30.325559 
405.207782  	30.619124 
406.644689  	30.984761 
408.081596  	30.359267 
409.518503  	31.380891 
410.955410  	31.465712 
412.392317  	30.005383 
413.829224  	30.201334 
415.266131  	30.076642 
416.703038  	30.089365 
418.139945  	31.735918 
419.576852  	31.039909 
421.013759  	30.430108 
422.450666  	30.460542 
423.887574  	30.899314 
425.324481  	31.787035 
426.761388  	31.295473 
428.198295  	30.659152 
429.635202  	30.559767 
431.072109  	30.180901 
432.509016  	30.756565 
433.945923  	31.482742 
435.382830  	31.570996 
436.819737  	32.059920 
438.256644  	31.721902 
439.693551  	31.332062 
441.130458  	31.440110 
442.567365  	30.615380 
444.004272  	30.409457 
445.441179  	31.228741 
446.878086  	31.806027 
448.314993  	32.156835 
449.751900  	31.456573 
451.188807  	30.870969 
452.625714  	31.523839 
454.062621  	31.433149 
455.499528  	30.982104 
456.936435  	31.523382 
458.373342  	32.144954 
459.810249  	32.164659 
461.247156  	32.317831 
462.684063  	32.697900 
464.120970  	32.301076 
465.557877  	31.213194 
466.994784  	31.133081 
468.431691  	31.639167 
469.868598  	31.716579 
471.305505  	32.089396 
472.742413  	32.373638 
474.179320  	32.078593 
475.616227  	31.780707 
477.053134  	31.667799 
478.490041  	31.970260 
479.926948  	32.040848 
481.363855  	31.990692 
482.800762  	32.293740 
484.237669  	32.038602 
485.674576  	31.651732 
487.111483  	31.848192 
488.548390  	32.061082 
489.985297  	32.359985 
491.422204  	32.256131 
492.859111  	31.820008 
494.296018  	32.006262 
495.732925  	32.063481 
497.169832  	32.065190 
498.606739  	32.518553 
500.043646  	32.469688 
501.480553  	32.110794 
502.917460  	32.124032 
504.354367  	32.356740 
505.791274  	32.936442 
507.228181  	33.236148 
508.665088  	32.975898 
510.101995  	32.941912 
511.538902  	32.880926 
512.975809  	32.787115 
514.412716  	32.961526 
515.849623  	33.089516 
517.286530  	33.163013 
518.723437  	33.175510 
520.160344  	33.099242 
521.597251  	33.121634 
523.034159  	33.129106 
524.471066  	33.123938 
525.907973  	33.173963 
527.344880  	33.302560 
528.781787  	33.514729 
530.218694  	33.562221 
531.655601  	33.590096 
533.092508  	33.790029 
534.529415  	33.815923 
535.966322  	33.741655 
537.403229  	33.767992 
538.840136  	33.746436 
540.277043  	33.807239 
541.713950  	34.028110 
543.150857  	34.223857 
544.587764  	34.272430 
546.024671  	34.245172 
547.461578  	34.321885 
548.898485  	34.327605 
550.335392  	34.256593 
551.772299  	34.364432 
553.209206  	34.546946 
554.646113  	34.762295 
556.083020  	34.935862 
557.519927  	34.955045 
558.956834  	35.038638 
560.393741  	35.091551 
561.830648  	35.108160 
563.267555  	35.288776 
564.704462  	35.341826 
566.141369  	35.353508 
567.578276  	35.528445 
569.015183  	35.550529 
570.452090  	35.595178 
571.888997  	35.813275 
573.325905  	35.956355 
574.762812  	36.103933 
576.199719  	36.182896 
577.636626  	36.164822 
579.073533  	36.283284 
580.510440  	36.448426 
581.947347  	36.614669 
583.384254  	36.752806 
584.821161  	36.815617 
586.258068  	36.968610 
587.694975  	37.079390 
589.131882  	37.068032 
590.568789  	37.158086 
592.005696  	37.294777 
593.442603  	37.442256 
594.879510  	37.603207 
596.316417  	37.695775 
597.753324  	37.857658 
599.190231  	38.032979 
600.627138  	38.083779 
602.064045  	38.136289 
603.500952  	38.222226 
604.937859  	38.392260 
606.374766  	38.579608 
607.811673  	38.667484 
609.248580  	38.794963 
610.685487  	38.974088 
612.122394  	39.085980 
613.559301  	39.228196 
614.996208  	39.367679 
616.433115  	39.494491 
617.870022  	39.654608 
619.306929  	39.768046 
620.743836  	39.936683 
622.180744  	40.136926 
623.617651  	40.214929 
625.054558  	40.292229 
626.491465  	40.434023 
627.928372  	40.606346 
629.365279  	40.803752 
630.802186  	40.927219 
632.239093  	41.016249 
633.676000  	41.145179 
635.112907  	41.299451 
636.549814  	41.511122 
637.986721  	41.684181 
639.423628  	41.790217 
640.860535  	41.929830 
642.297442  	42.072784 
643.734349  	42.246097 
645.171256  	42.433726 
646.608163  	42.589508 
648.045070  	42.747406 
649.481977  	42.896428 
650.918884  	43.052635 
652.355791  	43.235998 
653.792698  	43.383667 
655.229605  	43.550208 
656.666512  	43.739862 
658.103419  	43.870533 
659.540326  	44.035734 
660.977233  	44.257051 
662.414140  	44.436704 
663.851047  	44.594298 
665.287954  	44.673700 
666.724861  	44.785704 
668.161768  	45.050987 
669.598675  	45.314419 
671.035582  	45.445848 
672.472490  	45.621236 
673.909397  	45.783282 
675.346304  	45.942584 
676.783211  	46.162579 
678.220118  	46.358439 
679.657025  	46.546940 
681.093932  	46.755910 
682.530839  	46.947742 
683.967746  	47.151189 
685.404653  	47.357959 
686.841560  	47.532410 
688.278467  	47.708943 
689.715374  	47.928801 
691.152281  	48.154182 
692.589188  	48.353628 
694.026095  	48.514405 
695.463002  	48.677923 
696.899909  	48.902556 
698.336816  	49.088240 
699.773723  	49.254452 
701.210630  	49.477425 
702.647537  	49.669835 
704.084444  	49.829238 
705.521351  	50.058412 
706.958258  	50.310813 
708.395165  	50.522067 
709.832072  	50.731249 
711.268979  	50.953026 
712.705886  	51.162047 
714.142793  	51.365538 
715.579700  	51.572985 
717.016607  	51.777986 
718.453514  	52.002498 
719.890421  	52.241218 
721.327328  	52.448495 
722.764236  	52.638959 
724.201143  	52.842199 
725.638050  	53.023111 
727.074957  	53.220580 
728.511864  	53.474802 
729.948771  	53.704008 
731.385678  	53.940038 
732.822585  	54.189362 
734.259492  	54.374566 
735.696399  	54.595505 
737.133306  	54.890350 
738.570213  	55.123763 
740.007120  	55.315650 
741.444027  	55.566601 
742.880934  	55.833193 
744.317841  	56.048106 
745.754748  	56.266540 
747.191655  	56.525200 
748.628562  	56.737306 
750.065469  	56.922414 
751.502376  	57.174518 
752.939283  	57.430254 
754.376190  	57.660703 
755.813097  	57.914891 
757.250004  	58.143814 
758.686911  	58.351082 
760.123818  	58.587286 
761.560725  	58.822660 
762.997632  	59.077001 
764.434539  	59.383470 
765.871446  	59.666006 
767.308353  	59.866791 
768.745260  	60.054350 
770.182167  	60.317572 
771.619075  	60.614031 
773.055982  	60.828108 
774.492889  	60.994636 
775.929796  	61.251705 
777.366703  	61.564300 
778.803610  	61.799365 
780.240517  	61.995883 
781.677424  	62.223377 
783.114331  	62.425434 
784.551238  	62.638488 
785.988145  	62.952176 
787.425052  	63.275631 
788.861959  	63.539072 
790.298866  	63.803897 
791.735773  	64.053101 
793.172680  	64.255748 
794.609587  	64.478108 
796.046494  	64.724289 
797.483401  	64.960422 
798.920308  	65.224016 
800.357215  	65.500939 
801.794122  	65.750475 
803.231029  	66.012418 
804.667936  	66.291774 
806.104843  	66.571696 
807.541750  	66.866098 
808.978657  	67.107114 
810.415564  	67.288413 
811.852471  	67.509541 
813.289378  	67.757198 
814.726285  	67.999281 
816.163192  	68.253126 
817.600099  	68.496177 
819.037006  	68.758144 
820.473913  	69.062979 
821.910821  	69.336147 
823.347728  	69.567953 
824.784635  	69.821524 
826.221542  	70.091290 
827.658449  	70.340041 
829.095356  	70.595498 
830.532263  	70.851572 
831.969170  	71.072527 
833.406077  	71.349697 
834.842984  	71.675220 
836.279891  	71.909773 
837.716798  	72.131721 
839.153705  	72.398420 
840.590612  	72.636078 
842.027519  	72.907741 
843.464426  	73.171779 
844.901333  	73.364968 
846.338240  	73.637056 
847.775147  	73.966314 
849.212054  	74.228794 
850.648961  	74.471588 
852.085868  	74.732358 
853.522775  	75.001997 
854.959682  	75.248973 
856.396589  	75.478865 
857.833496  	75.728471 
859.270403  	75.946266 
860.707310  	76.164213 
862.144217  	76.413075 
863.581124  	76.620923 
865.018031  	76.875352 
866.454938  	77.186604 
867.891845  	77.423279 
869.328752  	77.642170 
870.765660  	77.874185 
872.202567  	78.088495 
873.639474  	78.315237 
875.076381  	78.529194 
876.513288  	78.753157 
877.950195  	78.990845 
879.387102  	79.214262 
880.824009  	79.466892 
882.260916  	79.681557 
883.697823  	79.878214 
885.134730  	80.157938 
886.571637  	80.384207 
888.008544  	80.544115 
889.445451  	80.757160 
890.882358  	80.975069 
892.319265  	81.187658 
893.756172  	81.388804 
895.193079  	81.563531 
896.629986  	81.747445 
898.066893  	81.919118 
899.503800  	82.144581 
900.940707  	82.396905 
902.377614  	82.528006 
903.814521  	82.660490 
905.251428  	82.859984 
906.688335  	83.030870 
908.125242  	83.222473 
909.562149  	83.399710 
910.999056  	83.541026 
912.435963  	83.735366 
913.872870  	83.918002 
915.309777  	84.065179 
916.746684  	84.224867 
918.183591  	84.377369 
919.620498  	84.538039 
921.057406  	84.696269 
922.494313  	84.853230 
923.931220  	85.014916 
925.368127  	85.130050 
926.805034  	85.262672 
928.241941  	85.447949 
929.678848  	85.606366 
931.115755  	85.750367 
932.552662  	85.899352 
933.989569  	86.039007 
935.426476  	86.155836 
936.863383  	86.248383 
938.300290  	86.370845 
939.737197  	86.490060 
941.174104  	86.585424 
942.611011  	86.711553 
944.047918  	86.818639 
945.484825  	86.939020 
946.921732  	87.097576 
948.358639  	87.181496 
949.795546  	87.259378 
951.232453  	87.366588 
952.669360  	87.431612 
954.106267  	87.539643 
955.543174  	87.665583 
956.980081  	87.764161 
958.416988  	87.900709 
959.853895  	87.996435 
961.290802  	88.058952 
962.727709  	88.153513 
964.164616  	88.209293 
965.601523  	88.266805 
967.038430  	88.356547 
968.475337  	88.431256 
969.912244  	88.512735 
971.349152  	88.572589 
972.786059  	88.627099 
974.222966  	88.717854 
975.659873  	88.787496 
977.096780  	88.849970 
978.533687  	88.922297 
979.970594  	88.974261 
981.407501  	89.020499 
982.844408  	89.063933 
984.281315  	89.138215 
985.718222  	89.233708 
987.155129  	89.285944 
988.592036  	89.333259 
990.028943  	89.394455 
991.465850  	89.459316 
992.902757  	89.524266 
994.339664  	89.545446 
995.776571  	89.573723 
997.213478  	89.616658 
998.650385  	89.627359 
1000.087292  	89.685307 
1001.524199  	89.750746 
1002.961106  	89.760981 
1004.398013  	89.795679 
1005.834920  	89.824848 
1007.271827  	89.844596 
1008.708734  	89.891106 
1010.145641  	89.915208 
1011.582548  	89.956679 
1013.019455  	89.994927 
1014.456362  	89.999610 
1015.893269  	90.061677 
1017.330176  	90.107760 
1018.767083  	90.104820 
1020.203991  	90.149469 
1021.640898  	90.185782 
1023.077805  	90.204193 
1024.514712  	90.228724 
1025.951619  	90.233046 
1027.388526  	90.273644 
1028.825433  	90.310420 
1030.262340  	90.315999 
1031.699247  	90.355525 
1033.136154  	90.358907 
1034.573061  	90.337284 
1036.009968  	90.372385 
1037.446875  	90.408201 
1038.883782  	90.431254 
1040.320689  	90.446761 
1041.757596  	90.447214 
1043.194503  	90.467972 
1044.631410  	90.504509 
1046.068317  	90.558527 
1047.505224  	90.595769 
1048.942131  	90.603245 
1050.379038  	90.656595 
1051.815945  	90.705593 
1053.252852  	90.728723 
1054.689759  	90.777391 
1056.126666  	90.785350 
1057.563573  	90.799206 
1059.000480  	90.851355 
1060.437387  	90.852724 
1061.874294  	90.868573 
1063.311201  	90.902349 
1064.748108  	90.911267 
1066.185015  	90.949521 
1067.621922  	90.953468 
1069.058829  	90.944153 
1070.495737  	90.976258 
1071.932644  	90.966332 
1073.369551  	90.980824 
1074.806458  	91.031712 
1076.243365  	91.022186 
1077.680272  	91.009793 
1079.117179  	90.989417 
1080.554086  	90.977044 
1081.990993  	91.036430 
1083.427900  	91.071504 
1084.864807  	91.081600 
1086.301714  	91.099121 
1087.738621  	91.073574 
1089.175528  	91.068074 
1090.612435  	91.098854 
1092.049342  	91.122363 
1093.486249  	91.135485 
1094.923156  	91.123175 
1096.360063  	91.125942 
1097.796970  	91.113552 
1099.233877  	91.065151 
1100.670784  	91.088050 
1102.107691  	91.143673 
1103.544598  	91.179133 
1104.981505  	91.212878 
1106.418412  	91.188588 
1107.855319  	91.177667 
1109.292226  	91.203846 
1110.729133  	91.176342 
1112.166040  	91.182037 
1113.602947  	91.230628 
1115.039854  	91.245314 
1116.476761  	91.261731 
1117.913668  	91.252629 
1119.350575  	91.232120 
1120.787483  	91.246791 
1122.224390  	91.270102 
1123.661297  	91.321273 
1125.098204  	91.333353 
1126.535111  	91.282979 
1127.972018  	91.292522 
1129.408925  	91.317985 
1130.845832  	91.315156 
1132.282739  	91.335165 
1133.719646  	91.336517 
1135.156553  	91.334350 
1136.593460  	91.343081 
1138.030367  	91.327656 
1139.467274  	91.319085 
1140.904181  	91.309332 
1142.341088  	91.314782 
1143.777995  	91.346382 
1145.214902  	91.335706 
1146.651809  	91.325638 
1148.088716  	91.338454 
1149.525623  	91.328176 
1150.962530  	91.334081 
1152.399437  	91.337574 
1153.836344  	91.326509 
1155.273251  	91.332438 
1156.710158  	91.317687 
1158.147065  	91.315485 
1159.583972  	91.332576 
1161.020879  	91.315396 
1162.457786  	91.315731 
1163.894693  	91.323539 
1165.331600  	91.308602 
1166.768507  	91.315899 
1168.205414  	91.311706 
1169.642322  	91.294459 
1171.079229  	91.296752 
1172.516136  	91.296855 
1173.953043  	91.310644 
1175.389950  	91.315758 
1176.826857  	91.294259 
1178.263764  	91.291430 
1179.700671  	91.288519 
1181.137578  	91.277544 
1182.574485  	91.270309 
1184.011392  	91.259592 
1185.448299  	91.264162 
1186.885206  	91.249089 
1188.322113  	91.220983 
1189.759020  	91.238971 
1191.195927  	91.255970 
1192.632834  	91.251919 
1194.069741  	91.250514 
1195.506648  	91.253507 
1196.943555  	91.276903 
1198.380462  	91.266837 
1199.817369  	91.233606 
1201.254276  	91.243799 
1202.691183  	91.230883 
1204.128090  	91.207619 
1205.564997  	91.221241 
1207.001904  	91.211551 
1208.438811  	91.208187 
1209.875718  	91.214436 
1211.312625  	91.199764 
1212.749532  	91.218096 
1214.186439  	91.223460 
1215.623346  	91.204617 
1217.060253  	91.224068 
1218.497160  	91.227792 
1219.934068  	91.215500 
1221.370975  	91.217625 
1222.807882  	91.217232 
1224.244789  	91.236154 
1225.681696  	91.229226 
1227.118603  	91.202128 
1228.555510  	91.221651 
1229.992417  	91.226837 
1231.429324  	91.219021 
1232.866231  	91.231630 
1234.303138  	91.217141 
1235.740045  	91.206753 
1237.176952  	91.201232 
1238.613859  	91.175565 
1240.050766  	91.172543 
1241.487673  	91.171657 
1242.924580  	91.174059 
1244.361487  	91.193529 
1245.798394  	91.182979 
1247.235301  	91.167161 
1248.672208  	91.150575 
1250.109115  	91.123318 
1251.546022  	91.142060 
1252.982929  	91.175454 
1254.419836  	91.173070 
1255.856743  	91.147006 
1257.293650  	91.119695 
1258.730557  	91.132139 
1260.167464  	91.149921 
1261.604371  	91.147346 
1263.041278  	91.165170 
1264.478185  	91.160247 
1265.915092  	91.138405 
1267.351999  	91.141731 
1268.788907  	91.126029 
1270.225814  	91.116217 
1271.662721  	91.127603 
1273.099628  	91.118295 
1274.536535  	91.108837 
1275.973442  	91.095742 
1277.410349  	91.088298 
1278.847256  	91.096189 
1280.284163  	91.081203 
1281.721070  	91.082178 
1283.157977  	91.098925 
1284.594884  	91.097047 
1286.031791  	91.122913 
1287.468698  	91.136319 
1288.905605  	91.110343 
1290.342512  	91.110210 
1291.779419  	91.123134 
1293.216326  	91.142819 
1294.653233  	91.155381 
1296.090140  	91.139889 
1297.527047  	91.153834 
1298.963954  	91.173863 
1300.400861  	91.172096 
1301.837768  	91.190618 
1303.274675  	91.201371 
1304.711582  	91.204539 
1306.148489  	91.207450 
1307.585396  	91.205053 
1309.022303  	91.216331 
1310.459210  	91.218295 
1311.896117  	91.212837 
1313.333024  	91.228594 
1314.769931  	91.222086 
1316.206838  	91.220170 
1317.643745  	91.236020 
1319.080653  	91.236171 
1320.517560  	91.244031 
1321.954467  	91.247876 
1323.391374  	91.241585 
1324.828281  	91.247032 
1326.265188  	91.248138 
1327.702095  	91.240014 
1329.139002  	91.232533 
1330.575909  	91.211891 
1332.012816  	91.237905 
1333.449723  	91.255676 
1334.886630  	91.217985 
1336.323537  	91.197523 
1337.760444  	91.182034 
1339.197351  	91.167180 
1340.634258  	91.198753 
1342.071165  	91.210433 
1343.508072  	91.201582 
1344.944979  	91.192155 
1346.381886  	91.174446 
1347.818793  	91.167665 
1349.255700  	91.154868 
1350.692607  	91.133378 
1352.129514  	91.129968 
1353.566421  	91.124488 
1355.003328  	91.105069 
1356.440235  	91.089323 
1357.877142  	91.076847 
1359.314049  	91.066636 
1360.750956  	91.035746 
1362.187863  	91.007988 
1363.624770  	91.032934 
1365.061677  	91.033186 
1366.498584  	90.994303 
1367.935491  	90.956189 
1369.372399  	90.904116 
1370.809306  	90.877190 
1372.246213  	90.855710 
1373.683120  	90.808142 
1375.120027  	90.780352 
1376.556934  	90.730210 
1377.993841  	90.693169 
1379.430748  	90.702073 
1380.867655  	90.677722 
1382.304562  	90.655655 
1383.741469  	90.626942 
1385.178376  	90.558314 
1386.615283  	90.550730 
1388.052190  	90.594272 
1389.489097  	90.608170 
1390.926004  	90.614989 
1392.362911  	90.584841 
1393.799818  	90.548743 
1395.236725  	90.588679 
1396.673632  	90.631224 
1398.110539  	90.656635 
1399.547446  	90.693492 
1400.984353  	90.707600 
1402.421260  	90.707406 
1403.858167  	90.698402 
1405.295074  	90.726300 
1406.731981  	90.772698 
1408.168888  	90.771659 
1409.605795  	90.781329 
1411.042702  	90.809083 
1412.479609  	90.826055 
1413.916516  	90.859743 
1415.353423  	90.877797 
1416.790330  	90.881313 
1418.227238  	90.880553 
1419.664145  	90.898700 
1421.101052  	90.948034 
1422.537959  	90.959116 
1423.974866  	90.953518 
1425.411773  	90.974969 
1426.848680  	90.978594 
1428.285587  	90.968470 
1429.722494  	90.981302 
1431.159401  	90.992328 
1432.596308  	91.005762 
1434.033215  	90.996994 
1435.470122  	90.967567 
1436.907029  	90.984580 
1438.343936  	90.992724 
1439.780843  	90.986401 
1441.217750  	91.004190 
1442.654657  	91.008258 
1444.091564  	90.993276 
1445.528471  	90.981636 
1446.965378  	90.962209 
1448.402285  	90.996898 
1449.839192  	91.015664 
1451.276099  	91.002782 
1452.713006  	91.000679 
1454.149913  	90.945233 
1455.586820  	90.930963 
1457.023727  	91.025722 
1458.460634  	90.997989 
1459.897541  	90.971564 
1461.334448  	90.948390 
1462.771355  	90.907957 
1464.208262  	90.926498 
1465.645169  	90.959336 
1467.082076  	90.950127 
1468.518984  	90.917540 
1469.955891  	90.845444 
1471.392798  	90.789747 
1472.829705  	90.809760 
1474.266612  	90.862610 
1475.703519  	90.885139 
1477.140426  	90.824611 
1478.577333  	90.768126 
1480.014240  	90.749141 
1481.451147  	90.733846 
1482.888054  	90.773330 
1484.324961  	90.773851 
1485.761868  	90.699564 
1487.198775  	90.648806 
1488.635682  	90.594732 
1490.072589  	90.578971 
1491.509496  	90.596767 
1492.946403  	90.532778 
1494.383310  	90.466845 
1495.820217  	90.413889 
1497.257124  	90.359753 
1498.694031  	90.391138 
1500.130938  	90.380212 
1501.567845  	90.306694 
1503.004752  	90.249848 
1504.441659  	90.173004 
1505.878566  	90.080860 
1507.315473  	90.093229 
1508.752380  	90.105792 
1510.189287  	90.061466 
1511.626194  	89.971827 
1513.063101  	89.910307 
1514.500008  	89.872291 
1515.936915  	89.774848 
1517.373822  	89.769964 
1518.810730  	89.780090 
1520.247637  	89.676538 
1521.684544  	89.626165 
1523.121451  	89.581984 
1524.558358  	89.496714 
1525.995265  	89.447192 
1527.432172  	89.341467 
1528.869079  	89.278105 
1530.305986  	89.229196 
1531.742893  	89.083286 
1533.179800  	89.030028 
1534.616707  	88.999177 
1536.053614  	88.849601 
1537.490521  	88.730930 
1538.927428  	88.582074 
1540.364335  	88.432304 
1541.801242  	88.399396 
1543.238149  	88.284675 
1544.675056  	88.217642 
1546.111963  	88.079904 
1547.548870  	87.910468 
1548.985777  	87.803190 
1550.422684  	87.665292 
1551.859591  	87.516399 
1553.296498  	87.389546 
1554.733405  	87.210844 
1556.170312  	87.055635 
1557.607219  	86.889759 
1559.044126  	86.649761 
1560.481033  	86.725530 
1561.917940  	86.511814 
1563.354847  	86.313576 
1564.791754  	86.201319 
1566.228661  	86.002905 
1567.665569  	85.856154 
1569.102476  	85.774553 
1570.539383  	85.551927 
1571.976290  	85.379966 
1573.413197  	85.148868 
1574.850104  	84.922687 
1576.287011  	84.817195 
1577.723918  	84.623594 
1579.160825  	84.389466 
1580.597732  	84.183872 
1582.034639  	83.937822 
1583.471546  	83.745277 
1584.908453  	83.539894 
1586.345360  	83.307065 
1587.782267  	83.076514 
1589.219174  	82.704214 
1590.656081  	82.375484 
1592.092988  	82.128372 
1593.529895  	81.790885 
1594.966802  	81.470847 
1596.403709  	81.112883 
1597.840616  	80.693886 
1599.277523  	80.356282 
1600.714430  	79.894687 
1602.151337  	79.440595 
1603.588244  	79.027295 
1605.025151  	78.507229 
1606.462058  	78.033988 
1607.898965  	77.571674 
1609.335872  	77.027089 
1610.772779  	76.568791 
1612.209686  	76.055029 
1613.646593  	75.514204 
1615.083500  	75.035734 
1616.520407  	74.419363 
1617.957315  	74.013872 
1619.394222  	73.587367 
1620.831129  	72.956454 
1622.268036  	72.569902 
1623.704943  	72.202739 
1625.141850  	71.722844 
1626.578757  	71.477810 
1628.015664  	71.164327 
1629.452571  	70.931390 
1630.889478  	70.759396 
1632.326385  	70.445664 
1633.763292  	70.307334 
1635.200199  	70.260412 
1636.637106  	70.334664 
1638.074013  	70.602937 
1639.510920  	70.565783 
1640.947827  	70.619239 
1642.384734  	70.842114 
1643.821641  	70.896714 
1645.258548  	71.074395 
1646.695455  	71.523423 
1648.132362  	72.029207 
1649.569269  	72.343508 
1651.006176  	72.289008 
1652.443083  	72.204088 
1653.879990  	73.987405 
1655.316897  	74.222994 
1656.753804  	74.238359 
1658.190711  	74.623498 
1659.627618  	74.975194 
1661.064525  	75.405882 
1662.501432  	75.941714 
1663.938339  	76.532966 
1665.375246  	77.010653 
1666.812154  	77.228086 
1668.249061  	77.573814 
1669.685968  	78.313529 
1671.122875  	78.897446 
1672.559782  	79.313635 
1673.996689  	79.641437 
1675.433596  	80.140352 
1676.870503  	80.907267 
1678.307410  	81.186872 
1679.744317  	81.594478 
1681.181224  	82.147641 
1682.618131  	82.416459 
1684.055038  	82.782014 
1685.491945  	83.692332 
1686.928852  	83.986740 
1688.365759  	84.382553 
1689.802666  	84.853373 
1691.239573  	85.242060 
1692.676480  	85.703052 
1694.113387  	85.992965 
1695.550294  	86.307369 
1696.987201  	86.858913 
1698.424108  	87.073899 
1699.861015  	87.332336 
1701.297922  	87.898363 
1702.734829  	88.105452 
1704.171736  	88.373726 
1705.608643  	88.715216 
1707.045550  	89.032524 
1708.482457  	89.377781 
1709.919364  	89.648186 
1711.356271  	89.926975 
1712.793178  	90.222882 
1714.230085  	90.448706 
1715.666992  	90.740158 
1717.103900  	91.027801 
1718.540807  	91.310217 
1719.977714  	91.650560 
1721.414621  	91.853202 
1722.851528  	92.085304 
1724.288435  	92.376794 
1725.725342  	92.603648 
1727.162249  	92.874260 
1728.599156  	93.018301 
1730.036063  	93.109967 
1731.472970  	93.274726 
1732.909877  	93.382203 
1734.346784  	93.492674 
1735.783691  	93.733501 
1737.220598  	93.808769 
1738.657505  	93.893764 
1740.094412  	94.047361 
1741.531319  	94.174821 
1742.968226  	94.322767 
1744.405133  	94.428261 
1745.842040  	94.505618 
1747.278947  	94.634025 
1748.715854  	94.720961 
1750.152761  	94.849877 
1751.589668  	95.032539 
1753.026575  	95.121257 
1754.463482  	95.220148 
1755.900389  	95.274481 
1757.337296  	95.356402 
1758.774203  	95.494219 
1760.211110  	95.544112 
1761.648017  	95.604998 
1763.084924  	95.715771 
1764.521831  	95.764032 
1765.958738  	95.843438 
1767.395646  	95.913745 
1768.832553  	95.962226 
1770.269460  	96.021959 
1771.706367  	96.053562 
1773.143274  	96.113061 
1774.580181  	96.158361 
1776.017088  	96.153948 
1777.453995  	96.255944 
1778.890902  	96.315252 
1780.327809  	96.315402 
1781.764716  	96.410322 
1783.201623  	96.459031 
1784.638530  	96.495749 
1786.075437  	96.575662 
1787.512344  	96.589976 
1788.949251  	96.597807 
1790.386158  	96.630228 
1791.823065  	96.630021 
1793.259972  	96.719956 
1794.696879  	96.750808 
1796.133786  	96.780469 
1797.570693  	96.864596 
1799.007600  	96.844204 
1800.444507  	96.841869 
1801.881414  	96.892062 
1803.318321  	96.877484 
1804.755228  	96.914694 
1806.192135  	96.936415 
1807.629042  	96.949250 
1809.065949  	97.006562 
1810.502856  	96.981546 
1811.939763  	97.009049 
1813.376670  	97.065974 
1814.813577  	97.066023 
1816.250485  	97.087124 
1817.687392  	97.106519 
1819.124299  	97.125440 
1820.561206  	97.181630 
1821.998113  	97.166045 
1823.435020  	97.173277 
1824.871927  	97.230754 
1826.308834  	97.206030 
1827.745741  	97.244514 
1829.182648  	97.310625 
1830.619555  	97.312560 
1832.056462  	97.329027 
1833.493369  	97.314311 
1834.930276  	97.338921 
1836.367183  	97.399182 
1837.804090  	97.386665 
1839.240997  	97.408167 
1840.677904  	97.442072 
1842.114811  	97.420443 
1843.551718  	97.476253 
1844.988625  	97.511754 
1846.425532  	97.490117 
1847.862439  	97.527226 
1849.299346  	97.502223 
1850.736253  	97.491546 
1852.173160  	97.507970 
1853.610067  	97.511233 
1855.046974  	97.548698 
1856.483881  	97.496827 
1857.920788  	97.452354 
1859.357695  	97.506462 
1860.794602  	97.508156 
1862.231509  	97.565906 
1863.668416  	97.631092 
1865.105323  	97.623496 
1866.542231  	97.675085 
1867.979138  	97.651035 
1869.416045  	97.566481 
1870.852952  	97.627612 
1872.289859  	97.585375 
1873.726766  	97.554146 
1875.163673  	97.575318 
1876.600580  	97.547132 
1878.037487  	97.591159 
1879.474394  	97.606612 
1880.911301  	97.592606 
1882.348208  	97.650723 
1883.785115  	97.653471 
1885.222022  	97.652486 
1886.658929  	97.667559 
1888.095836  	97.618574 
1889.532743  	97.632985 
1890.969650  	97.601227 
1892.406557  	97.513724 
1893.843464  	97.570887 
1895.280371  	97.602101 
1896.717278  	97.630765 
1898.154185  	97.697458 
1899.591092  	97.654372 
1901.027999  	97.666575 
1902.464906  	97.649943 
1903.901813  	97.594093 
1905.338720  	97.650668 
1906.775627  	97.623384 
1908.212534  	97.701491 
1909.649441  	97.851114 
1911.086348  	97.744156 
1912.523255  	97.750929 
1913.960162  	97.752039 
1915.397069  	97.647938 
1916.833977  	97.726695 
1918.270884  	97.770904 
1919.707791  	97.705433 
1921.144698  	97.705003 
1922.581605  	97.687315 
1924.018512  	97.705939 
1925.455419  	97.698179 
1926.892326  	97.665389 
1928.329233  	97.690916 
1929.766140  	97.713321 
1931.203047  	97.594820 
1932.639954  	97.658165 
1934.076861  	97.551465 
1935.513768  	97.638256 
1936.950675  	97.799355 
1938.387582  	97.626766 
1939.824489  	97.625036 
1941.261396  	97.703603 
1942.698303  	97.702306 
1944.135210  	97.722800 
1945.572117  	97.544931 
1947.009024  	97.620657 
1948.445931  	97.709513 
1949.882838  	97.424751 
1951.319745  	97.454301 
1952.756652  	97.575900 
1954.193559  	97.511522 
1955.630466  	97.626216 
1957.067373  	97.748518 
1958.504280  	97.849858 
1959.941187  	97.794077 
1961.378094  	97.529079 
1962.815001  	97.625569 
1964.251908  	97.716575 
1965.688816  	97.637580 
1967.125723  	97.808227 
1968.562630  	97.762344 
1969.999537  	97.720684 
1971.436444  	97.763893 
1972.873351  	97.485259 
1974.310258  	97.462075 
1975.747165  	97.587532 
1977.184072  	97.502301 
1978.620979  	97.549240 
1980.057886  	97.404919 
1981.494793  	97.240193 
1982.931700  	97.189696 
1984.368607  	97.010567 
1985.805514  	97.020218 
1987.242421  	97.018785 
1988.679328  	96.910361 
1990.116235  	97.100674 
1991.553142  	97.109476 
1992.990049  	96.881309 
1994.426956  	96.875264 
1995.863863  	96.766738 
1997.300770  	96.681161 
1998.737677  	96.884087 
2000.174584  	96.795653 
2001.611491  	96.844311 
2003.048398  	96.839323 
2004.485305  	96.513642 
2005.922212  	96.414250 
2007.359119  	96.415692 
2008.796026  	96.508020 
2010.232933  	96.650049 
2011.669840  	96.582168 
2013.106747  	96.540106 
2014.543654  	96.218321 
2015.980562  	96.066589 
2017.417469  	96.369507 
2018.854376  	96.108861 
2020.291283  	95.991939 
2021.728190  	96.201222 
2023.165097  	95.787196 
2024.602004  	95.850435 
2026.038911  	96.381801 
2027.475818  	96.238075 
2028.912725  	96.155052 
2030.349632  	96.193069 
2031.786539  	96.149718 
2033.223446  	96.319579 
2034.660353  	96.241322 
2036.097260  	96.078734 
2037.534167  	96.073076 
2038.971074  	96.079940 
2040.407981  	96.160572 
2041.844888  	96.084430 
2043.281795  	95.886025 
2044.718702  	95.650833 
2046.155609  	95.508226 
2047.592516  	95.840780 
2049.029423  	96.084416 
2050.466330  	95.862132 
2051.903237  	95.761238 
2053.340144  	95.731401 
2054.777051  	95.748547 
2056.213958  	95.875954 
2057.650865  	95.771933 
2059.087772  	95.600134 
2060.524679  	95.651137 
2061.961586  	95.855199 
2063.398493  	95.964289 
2064.835401  	95.815045 
2066.272308  	95.814138 
2067.709215  	95.892296 
2069.146122  	95.709679 
2070.583029  	95.632488 
2072.019936  	95.614817 
2073.456843  	95.591505 
2074.893750  	95.729727 
2076.330657  	95.566855 
2077.767564  	95.383706 
2079.204471  	95.619712 
2080.641378  	95.741806 
2082.078285  	95.772584 
2083.515192  	95.768241 
2084.952099  	95.545623 
2086.389006  	95.560584 
2087.825913  	95.714384 
2089.262820  	95.687886 
2090.699727  	95.730872 
2092.136634  	95.751168 
2093.573541  	95.755111 
2095.010448  	95.816891 
2096.447355  	95.725499 
2097.884262  	95.664065 
2099.321169  	95.702677 
2100.758076  	95.768069 
2102.194983  	95.839803 
2103.631890  	95.675814 
2105.068797  	95.596244 
2106.505704  	95.790256 
2107.942611  	95.810161 
2109.379518  	95.760365 
2110.816425  	95.736677 
2112.253332  	95.651966 
2113.690239  	95.724422 
2115.127147  	95.762872 
2116.564054  	95.702105 
2118.000961  	95.756592 
2119.437868  	95.759627 
2120.874775  	95.764307 
2122.311682  	95.772064 
2123.748589  	95.654251 
2125.185496  	95.763867 
2126.622403  	95.987975 
2128.059310  	95.887514 
2129.496217  	95.714458 
2130.933124  	95.760486 
2132.370031  	95.929185 
2133.806938  	95.962573 
2135.243845  	95.761330 
2136.680752  	95.600339 
2138.117659  	95.650644 
2139.554566  	95.822284 
2140.991473  	95.804146 
2142.428380  	95.672017 
2143.865287  	96.013835 
2145.302194  	96.345775 
2146.739101  	96.164992 
2148.176008  	96.078108 
2149.612915  	95.988360 
2151.049822  	95.963902 
2152.486729  	96.228306 
2153.923636  	96.120089 
2155.360543  	96.028799 
2156.797450  	96.205110 
2158.234357  	96.049053 
2159.671264  	96.225616 
2161.108171  	96.521373 
2162.545078  	96.375371 
2163.981985  	96.169741 
2165.418893  	95.849308 
2166.855800  	95.885701 
2168.292707  	96.254776 
2169.729614  	96.338518 
2171.166521  	96.537878 
2172.603428  	96.581140 
2174.040335  	96.220322 
2175.477242  	96.073887 
2176.914149  	95.947334 
2178.351056  	95.928501 
2179.787963  	96.273935 
2181.224870  	96.333941 
2182.661777  	96.316594 
2184.098684  	96.453272 
2185.535591  	96.328334 
2186.972498  	96.127547 
2188.409405  	95.963794 
2189.846312  	95.832051 
2191.283219  	95.794615 
2192.720126  	95.663721 
2194.157033  	95.615666 
2195.593940  	95.756724 
2197.030847  	95.841967 
2198.467754  	95.918310 
2199.904661  	96.031191 
2201.341568  	96.198529 
2202.778475  	96.288834 
2204.215382  	96.143057 
2205.652289  	96.030388 
2207.089196  	95.919664 
2208.526103  	95.769838 
2209.963010  	95.849088 
2211.399917  	95.967410 
2212.836824  	96.036559 
2214.273732  	96.215629 
2215.710639  	96.297412 
2217.147546  	96.173216 
2218.584453  	95.966066 
2220.021360  	96.009385 
2221.458267  	96.256441 
2222.895174  	96.180103 
2224.332081  	96.085713 
2225.768988  	96.292106 
2227.205895  	96.347292 
2228.642802  	96.263708 
2230.079709  	96.143722 
2231.516616  	96.059647 
2232.953523  	96.273441 
2234.390430  	96.402293 
2235.827337  	96.305533 
2237.264244  	96.322265 
2238.701151  	96.305630 
2240.138058  	96.308425 
2241.574965  	96.398890 
2243.011872  	96.344622 
2244.448779  	96.301141 
2245.885686  	96.335342 
2247.322593  	96.366633 
2248.759500  	96.428719 
2250.196407  	96.408364 
2251.633314  	96.398505 
2253.070221  	96.440272 
2254.507128  	96.430011 
2255.944035  	96.489876 
2257.380942  	96.563764 
2258.817849  	96.645969 
2260.254756  	96.783771 
2261.691663  	96.751044 
2263.128570  	96.713980 
2264.565478  	96.808836 
2266.002385  	96.785683 
2267.439292  	96.746934 
2268.876199  	96.800303 
2270.313106  	96.865597 
2271.750013  	96.909472 
2273.186920  	96.860346 
2274.623827  	96.881886 
2276.060734  	96.998459 
2277.497641  	97.005727 
2278.934548  	97.015171 
2280.371455  	97.056156 
2281.808362  	97.069098 
2283.245269  	97.103457 
2284.682176  	97.066585 
2286.119083  	97.055793 
2287.555990  	97.133041 
2288.992897  	97.111398 
2290.429804  	97.095103 
2291.866711  	97.169821 
2293.303618  	97.193330 
2294.740525  	97.183928 
2296.177432  	97.197616 
2297.614339  	97.241833 
2299.051246  	97.201650 
2300.488153  	97.255594 
2301.925060  	97.250278 
2303.361967  	97.235184 
2304.798874  	97.247072 
2306.235781  	97.338784 
2307.672688  	97.326358 
2309.109595  	97.270704 
2310.546502  	97.302808 
2311.983409  	97.297655 
2313.420317  	97.334961 
2314.857224  	97.374479 
2316.294131  	97.286723 
2317.731038  	97.290830 
2319.167945  	97.345711 
2320.604852  	97.303803 
2322.041759  	97.329632 
2323.478666  	97.394038 
2324.915573  	97.409251 
2326.352480  	97.398752 
2327.789387  	97.383159 
2329.226294  	97.429638 
2330.663201  	97.454066 
2332.100108  	97.481500 
2333.537015  	97.601404 
2334.973922  	97.582028 
2336.410829  	97.468510 
2337.847736  	97.451039 
2339.284643  	97.428265 
2340.721550  	97.426677 
2342.158457  	97.455605 
2343.595364  	97.468119 
2345.032271  	97.540601 
2346.469178  	97.575000 
2347.906085  	97.579022 
2349.342992  	97.611578 
2350.779899  	97.609740 
2352.216806  	97.628163 
2353.653713  	97.684504 
2355.090620  	97.696712 
2356.527527  	97.740827 
2357.964434  	97.722795 
2359.401341  	97.692731 
2360.838248  	97.830347 
2362.275155  	97.906875 
2363.712063  	97.916779 
2365.148970  	97.946466 
2366.585877  	97.956837 
2368.022784  	98.040452 
2369.459691  	98.065036 
2370.896598  	98.002537 
2372.333505  	97.985836 
2373.770412  	97.964563 
2375.207319  	97.963516 
2376.644226  	97.956198 
2378.081133  	97.929126 
2379.518040  	97.984413 
2380.954947  	98.013534 
2382.391854  	97.999254 
2383.828761  	98.045451 
2385.265668  	98.043793 
2386.702575  	98.010005 
2388.139482  	98.046915 
2389.576389  	98.066166 
2391.013296  	98.058179 
2392.450203  	98.068334 
2393.887110  	98.053976 
2395.324017  	98.021324 
2396.760924  	97.998243 
2398.197831  	98.011912 
2399.634738  	98.049694 
2401.071645  	98.058181 
2402.508552  	98.053099 
2403.945459  	98.052680 
2405.382366  	98.069657 
2406.819273  	98.092442 
2408.256180  	98.079813 
2409.693087  	98.079013 
2411.129994  	98.071583 
2412.566901  	98.035243 
2414.003809  	98.062423 
2415.440716  	98.105836 
2416.877623  	98.136358 
2418.314530  	98.192800 
2419.751437  	98.202531 
2421.188344  	98.239339 
2422.625251  	98.314600 
2424.062158  	98.292271 
2425.499065  	98.275559 
2426.935972  	98.293393 
2428.372879  	98.283669 
2429.809786  	98.318939 
2431.246693  	98.323818 
2432.683600  	98.294032 
2434.120507  	98.325006 
2435.557414  	98.345313 
2436.994321  	98.376703 
2438.431228  	98.414136 
2439.868135  	98.393269 
2441.305042  	98.406114 
2442.741949  	98.424889 
2444.178856  	98.427467 
2445.615763  	98.485682 
2447.052670  	98.511373 
2448.489577  	98.497744 
2449.926484  	98.498208 
2451.363391  	98.498954 
2452.800298  	98.525798 
2454.237205  	98.515732 
2455.674112  	98.482782 
2457.111019  	98.499144 
2458.547926  	98.475980 
2459.984833  	98.465382 
2461.421740  	98.525314 
2462.858648  	98.542930 
2464.295555  	98.543155 
2465.732462  	98.546974 
2467.169369  	98.546128 
2468.606276  	98.578809 
2470.043183  	98.571762 
2471.480090  	98.563547 
2472.916997  	98.599805 
2474.353904  	98.556313 
2475.790811  	98.483234 
2477.227718  	98.492921 
2478.664625  	98.560713 
2480.101532  	98.621156 
2481.538439  	98.603379 
2482.975346  	98.583080 
2484.412253  	98.608213 
2485.849160  	98.606052 
2487.286067  	98.618154 
2488.722974  	98.619598 
2490.159881  	98.581267 
2491.596788  	98.604283 
2493.033695  	98.654059 
2494.470602  	98.688577 
2495.907509  	98.691177 
2497.344416  	98.642663 
2498.781323  	98.673432 
2500.218230  	98.715010 
2501.655137  	98.662523 
2503.092044  	98.677136 
2504.528951  	98.704831 
2505.965858  	98.674434 
2507.402765  	98.698584 
2508.839672  	98.686129 
2510.276579  	98.650710 
2511.713486  	98.711579 
2513.150394  	98.757488 
2514.587301  	98.753067 
2516.024208  	98.741043 
2517.461115  	98.711675 
2518.898022  	98.682496 
2520.334929  	98.654551 
2521.771836  	98.683608 
2523.208743  	98.741488 
2524.645650  	98.717413 
2526.082557  	98.707533 
2527.519464  	98.747587 
2528.956371  	98.743105 
2530.393278  	98.734594 
2531.830185  	98.735844 
2533.267092  	98.722670 
2534.703999  	98.705876 
2536.140906  	98.685998 
2537.577813  	98.698366 
2539.014720  	98.705303 
2540.451627  	98.687280 
2541.888534  	98.706883 
2543.325441  	98.699673 
2544.762348  	98.669361 
2546.199255  	98.696710 
2547.636162  	98.697945 
2549.073069  	98.671067 
2550.509976  	98.687045 
2551.946883  	98.696266 
2553.383790  	98.690461 
2554.820697  	98.691007 
2556.257604  	98.695737 
2557.694511  	98.715927 
2559.131418  	98.718456 
2560.568325  	98.700324 
2562.005232  	98.706144 
2563.442140  	98.714048 
2564.879047  	98.673454 
2566.315954  	98.634336 
2567.752861  	98.672825 
2569.189768  	98.707736 
2570.626675  	98.686144 
2572.063582  	98.685240 
2573.500489  	98.657892 
2574.937396  	98.607817 
2576.374303  	98.647967 
2577.811210  	98.681207 
2579.248117  	98.644211 
2580.685024  	98.626090 
2582.121931  	98.592741 
2583.558838  	98.545660 
2584.995745  	98.561962 
2586.432652  	98.612279 
2587.869559  	98.653369 
2589.306466  	98.669182 
2590.743373  	98.653162 
2592.180280  	98.614603 
2593.617187  	98.570403 
2595.054094  	98.566017 
2596.491001  	98.599015 
2597.927908  	98.624733 
2599.364815  	98.623487 
2600.801722  	98.587203 
2602.238629  	98.571696 
2603.675536  	98.602010 
2605.112443  	98.609021 
2606.549350  	98.590241 
2607.986257  	98.574650 
2609.423164  	98.570122 
2610.860071  	98.592779 
2612.296979  	98.607365 
2613.733886  	98.606181 
2615.170793  	98.609626 
2616.607700  	98.599438 
2618.044607  	98.603544 
2619.481514  	98.625821 
2620.918421  	98.626603 
2622.355328  	98.622660 
2623.792235  	98.627284 
2625.229142  	98.642023 
2626.666049  	98.643902 
2628.102956  	98.615484 
2629.539863  	98.633704 
2630.976770  	98.689328 
2632.413677  	98.695018 
2633.850584  	98.689551 
2635.287491  	98.707893 
2636.724398  	98.718178 
2638.161305  	98.697121 
2639.598212  	98.653656 
2641.035119  	98.654142 
2642.472026  	98.686347 
2643.908933  	98.693815 
2645.345840  	98.705019 
2646.782747  	98.702789 
2648.219654  	98.686835 
2649.656561  	98.704174 
2651.093468  	98.705870 
2652.530375  	98.693185 
2653.967282  	98.698687 
2655.404189  	98.680900 
2656.841096  	98.676575 
2658.278003  	98.702967 
2659.714910  	98.706384 
2661.151817  	98.707153 
2662.588725  	98.706104 
2664.025632  	98.688132 
2665.462539  	98.681637 
2666.899446  	98.685270 
2668.336353  	98.700657 
2669.773260  	98.707381 
2671.210167  	98.686624 
2672.647074  	98.688542 
2674.083981  	98.694892 
2675.520888  	98.673952 
2676.957795  	98.674011 
2678.394702  	98.692354 
2679.831609  	98.713105 
2681.268516  	98.721716 
2682.705423  	98.684787 
2684.142330  	98.664880 
2685.579237  	98.692050 
2687.016144  	98.699794 
2688.453051  	98.698602 
2689.889958  	98.710927 
2691.326865  	98.707530 
2692.763772  	98.697843 
2694.200679  	98.697138 
2695.637586  	98.690879 
2697.074493  	98.681961 
2698.511400  	98.692280 
2699.948307  	98.702877 
2701.385214  	98.688384 
2702.822121  	98.685933 
2704.259028  	98.697462 
2705.695935  	98.691605 
2707.132842  	98.688867 
2708.569749  	98.679302 
2710.006656  	98.661598 
2711.443564  	98.674137 
2712.880471  	98.685938 
2714.317378  	98.683338 
2715.754285  	98.682941 
2717.191192  	98.654582 
2718.628099  	98.623798 
2720.065006  	98.627988 
2721.501913  	98.643472 
2722.938820  	98.654372 
2724.375727  	98.642303 
2725.812634  	98.618704 
2727.249541  	98.614378 
2728.686448  	98.608571 
2730.123355  	98.602181 
2731.560262  	98.607771 
2732.997169  	98.610236 
2734.434076  	98.610895 
2735.870983  	98.588409 
2737.307890  	98.544400 
2738.744797  	98.529091 
2740.181704  	98.529788 
2741.618611  	98.515904 
2743.055518  	98.507108 
2744.492425  	98.513527 
2745.929332  	98.511584 
2747.366239  	98.486095 
2748.803146  	98.469586 
2750.240053  	98.470576 
2751.676960  	98.455732 
2753.113867  	98.436575 
2754.550774  	98.424380 
2755.987681  	98.423254 
2757.424588  	98.430103 
2758.861495  	98.384982 
2760.298402  	98.331015 
2761.735310  	98.353151 
2763.172217  	98.373017 
2764.609124  	98.359494 
2766.046031  	98.364663 
2767.482938  	98.352512 
2768.919845  	98.322136 
2770.356752  	98.305423 
2771.793659  	98.292533 
2773.230566  	98.285720 
2774.667473  	98.266252 
2776.104380  	98.238212 
2777.541287  	98.226175 
2778.978194  	98.206624 
2780.415101  	98.191275 
2781.852008  	98.181343 
2783.288915  	98.141600 
2784.725822  	98.106084 
2786.162729  	98.099439 
2787.599636  	98.113325 
2789.036543  	98.134791 
2790.473450  	98.115337 
2791.910357  	98.076708 
2793.347264  	98.056716 
2794.784171  	98.022917 
2796.221078  	97.995520 
2797.657985  	97.983127 
2799.094892  	97.950033 
2800.531799  	97.924481 
2801.968706  	97.907422 
2803.405613  	97.882175 
2804.842520  	97.879552 
2806.279427  	97.876514 
2807.716334  	97.845398 
2809.153241  	97.815959 
2810.590148  	97.797887 
2812.027056  	97.771887 
2813.463963  	97.721939 
2814.900870  	97.675889 
2816.337777  	97.673825 
2817.774684  	97.680984 
2819.211591  	97.656536 
2820.648498  	97.618473 
2822.085405  	97.586432 
2823.522312  	97.557118 
2824.959219  	97.524070 
2826.396126  	97.504391 
2827.833033  	97.503574 
2829.269940  	97.485698 
2830.706847  	97.448706 
2832.143754  	97.411613 
2833.580661  	97.364887 
2835.017568  	97.323130 
2836.454475  	97.303952 
2837.891382  	97.283347 
2839.328289  	97.248590 
2840.765196  	97.219122 
2842.202103  	97.198641 
2843.639010  	97.158897 
2845.075917  	97.108141 
2846.512824  	97.085143 
2847.949731  	97.067707 
2849.386638  	97.032468 
2850.823545  	97.002860 
2852.260452  	96.971638 
2853.697359  	96.931774 
2855.134266  	96.897135 
2856.571173  	96.856778 
2858.008080  	96.807325 
2859.444987  	96.759978 
2860.881895  	96.726522 
2862.318802  	96.707595 
2863.755709  	96.675435 
2865.192616  	96.635008 
2866.629523  	96.610447 
2868.066430  	96.585289 
2869.503337  	96.553540 
2870.940244  	96.512626 
2872.377151  	96.451089 
2873.814058  	96.389342 
2875.250965  	96.339480 
2876.687872  	96.306405 
2878.124779  	96.282028 
2879.561686  	96.219090 
2880.998593  	96.142968 
2882.435500  	96.106686 
2883.872407  	96.065225 
2885.309314  	96.005919 
2886.746221  	95.965228 
2888.183128  	95.921345 
2889.620035  	95.870565 
2891.056942  	95.827789 
2892.493849  	95.775825 
2893.930756  	95.717476 
2895.367663  	95.647348 
2896.804570  	95.562465 
2898.241477  	95.510915 
2899.678384  	95.484819 
2901.115291  	95.419086 
2902.552198  	95.328498 
2903.989105  	95.268099 
2905.426012  	95.230130 
2906.862919  	95.177317 
2908.299826  	95.104745 
2909.736733  	95.028985 
2911.173641  	94.949719 
2912.610548  	94.868530 
2914.047455  	94.815035 
2915.484362  	94.784500 
2916.921269  	94.725408 
2918.358176  	94.637136 
2919.795083  	94.563204 
2921.231990  	94.503867 
2922.668897  	94.441203 
2924.105804  	94.374614 
2925.542711  	94.296100 
2926.979618  	94.205417 
2928.416525  	94.124038 
2929.853432  	94.055224 
2931.290339  	93.970590 
2932.727246  	93.872002 
2934.164153  	93.801061 
2935.601060  	93.745060 
2937.037967  	93.663756 
2938.474874  	93.576646 
2939.911781  	93.496266 
2941.348688  	93.414812 
2942.785595  	93.337447 
2944.222502  	93.240815 
2945.659409  	93.130407 
2947.096316  	93.035442 
2948.533223  	92.940588 
2949.970130  	92.856240 
2951.407037  	92.770450 
2952.843944  	92.644915 
2954.280851  	92.545225 
2955.717758  	92.484671 
2957.154665  	92.387280 
2958.591572  	92.274935 
2960.028479  	92.167928 
2961.465387  	92.060234 
2962.902294  	91.976246 
2964.339201  	91.882256 
2965.776108  	91.777179 
2967.213015  	91.680426 
2968.649922  	91.555701 
2970.086829  	91.433986 
2971.523736  	91.320830 
2972.960643  	91.186470 
2974.397550  	91.088377 
2975.834457  	90.994348 
2977.271364  	90.854929 
2978.708271  	90.742291 
2980.145178  	90.644856 
2981.582085  	90.521805 
2983.018992  	90.393382 
2984.455899  	90.248907 
2985.892806  	90.108174 
2987.329713  	89.976046 
2988.766620  	89.823084 
2990.203527  	89.677391 
2991.640434  	89.549945 
2993.077341  	89.432323 
2994.514248  	89.303990 
2995.951155  	89.139618 
2997.388062  	88.992095 
2998.824969  	88.855341 
3000.261876  	88.689342 
3001.698783  	88.554565 
3003.135690  	88.434657 
3004.572597  	88.274975 
3006.009504  	88.092526 
3007.446411  	87.897375 
3008.883318  	87.744626 
3010.320226  	87.627272 
3011.757133  	87.462128 
3013.194040  	87.285259 
3014.630947  	87.105910 
3016.067854  	86.901280 
3017.504761  	86.730015 
3018.941668  	86.579414 
3020.378575  	86.425026 
3021.815482  	86.260624 
3023.252389  	86.055031 
3024.689296  	85.867424 
3026.126203  	85.709624 
3027.563110  	85.529922 
3029.000017  	85.356354 
3030.436924  	85.173075 
3031.873831  	84.958878 
3033.310738  	84.753271 
3034.747645  	84.573611 
3036.184552  	84.409662 
3037.621459  	84.188055 
3039.058366  	83.929026 
3040.495273  	83.738591 
3041.932180  	83.555401 
3043.369087  	83.347442 
3044.805994  	83.158672 
3046.242901  	82.942333 
3047.679808  	82.723470 
3049.116715  	82.513730 
3050.553622  	82.279690 
3051.990529  	82.069348 
3053.427436  	81.850275 
3054.864343  	81.612845 
3056.301250  	81.401461 
3057.738157  	81.171335 
3059.175064  	80.945508 
3060.611972  	80.716357 
3062.048879  	80.454244 
3063.485786  	80.239465 
3064.922693  	80.012262 
3066.359600  	79.744489 
3067.796507  	79.524487 
3069.233414  	79.272953 
3070.670321  	78.987164 
3072.107228  	78.725417 
3073.544135  	78.445418 
3074.981042  	78.185053 
3076.417949  	77.936488 
3077.854856  	77.680765 
3079.291763  	77.441572 
3080.728670  	77.167882 
3082.165577  	76.921603 
3083.602484  	76.687393 
3085.039391  	76.367332 
3086.476298  	76.078654 
3087.913205  	75.801460 
3089.350112  	75.488350 
3090.787019  	75.248438 
3092.223926  	74.983154 
3093.660833  	74.689501 
3095.097740  	74.449340 
3096.534647  	74.147376 
3097.971554  	73.834965 
3099.408461  	73.545670 
3100.845368  	73.219717 
3102.282275  	72.942841 
3103.719182  	72.655339 
3105.156089  	72.344563 
3106.592996  	72.100867 
3108.029903  	71.821756 
3109.466811  	71.493969 
3110.903718  	71.172612 
3112.340625  	70.878228 
3113.777532  	70.617185 
3115.214439  	70.274674 
3116.651346  	69.934202 
3118.088253  	69.650357 
3119.525160  	69.282364 
3120.962067  	68.990005 
3122.398974  	68.777139 
3123.835881  	68.467167 
3125.272788  	68.172581 
3126.709695  	67.844698 
3128.146602  	67.486991 
3129.583509  	67.223817 
3131.020416  	66.908198 
3132.457323  	66.591409 
3133.894230  	66.308003 
3135.331137  	65.950953 
3136.768044  	65.666906 
3138.204951  	65.372852 
3139.641858  	65.019942 
3141.078765  	64.766803 
3142.515672  	64.458510 
3143.952579  	64.129685 
3145.389486  	63.857645 
3146.826393  	63.495039 
3148.263300  	63.180770 
3149.700207  	62.891928 
3151.137114  	62.553327 
3152.574021  	62.307112 
3154.010928  	62.003151 
3155.447835  	61.673071 
3156.884742  	61.433896 
3158.321649  	61.135525 
3159.758557  	60.873475 
3161.195464  	60.597708 
3162.632371  	60.248967 
3164.069278  	60.032735 
3165.506185  	59.774277 
3166.943092  	59.451456 
3168.379999  	59.201509 
3169.816906  	58.869623 
3171.253813  	58.602310 
3172.690720  	58.390241 
3174.127627  	58.055792 
3175.564534  	57.795490 
3177.001441  	57.559355 
3178.438348  	57.317958 
3179.875255  	57.117110 
3181.312162  	56.780103 
3182.749069  	56.543234 
3184.185976  	56.424175 
3185.622883  	56.140289 
3187.059790  	55.887225 
3188.496697  	55.656198 
3189.933604  	55.395796 
3191.370511  	55.220986 
3192.807418  	54.959133 
3194.244325  	54.719507 
3195.681232  	54.549851 
3197.118139  	54.301099 
3198.555046  	54.155238 
3199.991953  	53.981583 
3201.428860  	53.730972 
3202.865767  	53.597244 
3204.302674  	53.373382 
3205.739581  	53.173308 
3207.176488  	53.088626 
3208.613395  	52.880412 
3210.050303  	52.730907 
3211.487210  	52.602571 
3212.924117  	52.396024 
3214.361024  	52.277316 
3215.797931  	52.075885 
3217.234838  	51.897801 
3218.671745  	51.843264 
3220.108652  	51.687488 
3221.545559  	51.597707 
3222.982466  	51.514928 
3224.419373  	51.346308 
3225.856280  	51.284276 
3227.293187  	51.149209 
3228.730094  	51.025428 
3230.167001  	50.978408 
3231.603908  	50.782609 
3233.040815  	50.714514 
3234.477722  	50.680552 
3235.914629  	50.509286 
3237.351536  	50.523114 
3238.788443  	50.491430 
3240.225350  	50.374236 
3241.662257  	50.356134 
3243.099164  	50.193195 
3244.536071  	50.123360 
3245.972978  	50.159585 
3247.409885  	50.023785 
3248.846792  	50.027367 
3250.283699  	50.059040 
3251.720606  	49.964965 
3253.157513  	49.940800 
3254.594420  	49.853306 
3256.031327  	49.817584 
3257.468234  	49.839690 
3258.905142  	49.746938 
3260.342049  	49.749886 
3261.778956  	49.711124 
3263.215863  	49.648556 
3264.652770  	49.748769 
3266.089677  	49.679844 
3267.526584  	49.607456 
3268.963491  	49.673949 
3270.400398  	49.584681 
3271.837305  	49.560994 
3273.274212  	49.588460 
3274.711119  	49.532781 
3276.148026  	49.581760 
3277.584933  	49.579831 
3279.021840  	49.560939 
3280.458747  	49.559848 
3281.895654  	49.449553 
3283.332561  	49.482895 
3284.769468  	49.521096 
3286.206375  	49.441568 
3287.643282  	49.478050 
3289.080189  	49.443142 
3290.517096  	49.413937 
3291.954003  	49.467617 
3293.390910  	49.379131 
3294.827817  	49.384837 
3296.264724  	49.406115 
3297.701631  	49.325910 
3299.138538  	49.386209 
3300.575445  	49.354587 
3302.012352  	49.319750 
3303.449259  	49.427233 
3304.886166  	49.338909 
3306.323073  	49.286445 
3307.759980  	49.357989 
3309.196888  	49.341697 
3310.633795  	49.375763 
3312.070702  	49.316346 
3313.507609  	49.256709 
3314.944516  	49.346668 
3316.381423  	49.297529 
3317.818330  	49.285786 
3319.255237  	49.317029 
3320.692144  	49.238260 
3322.129051  	49.309280 
3323.565958  	49.306852 
3325.002865  	49.218553 
3326.439772  	49.314591 
3327.876679  	49.311995 
3329.313586  	49.288596 
3330.750493  	49.307990 
3332.187400  	49.219793 
3333.624307  	49.279689 
3335.061214  	49.342425 
3336.498121  	49.315233 
3337.935028  	49.368253 
3339.371935  	49.301735 
3340.808842  	49.288769 
3342.245749  	49.362305 
3343.682656  	49.316620 
3345.119563  	49.409364 
3346.556470  	49.458919 
3347.993377  	49.373807 
3349.430284  	49.433407 
3350.867191  	49.427673 
3352.304098  	49.467048 
3353.741005  	49.600401 
3355.177912  	49.571601 
3356.614819  	49.653859 
3358.051726  	49.716288 
3359.488634  	49.638784 
3360.925541  	49.753384 
3362.362448  	49.803509 
3363.799355  	49.804529 
3365.236262  	49.936737 
3366.673169  	49.943679 
3368.110076  	50.003792 
3369.546983  	50.110667 
3370.983890  	50.141813 
3372.420797  	50.282643 
3373.857704  	50.324493 
3375.294611  	50.373802 
3376.731518  	50.562755 
3378.168425  	50.564796 
3379.605332  	50.616491 
3381.042239  	50.776245 
3382.479146  	50.835010 
3383.916053  	50.979355 
3385.352960  	51.067347 
3386.789867  	51.139635 
3388.226774  	51.345297 
3389.663681  	51.421258 
3391.100588  	51.532015 
3392.537495  	51.707448 
3393.974402  	51.775970 
3395.411309  	51.939635 
3396.848216  	52.070725 
3398.285123  	52.183264 
3399.722030  	52.381616 
3401.158937  	52.445343 
3402.595844  	52.601039 
3404.032751  	52.846260 
3405.469658  	52.976021 
3406.906565  	53.195223 
3408.343473  	53.328236 
3409.780380  	53.424177 
3411.217287  	53.692348 
3412.654194  	53.808500 
3414.091101  	53.930934 
3415.528008  	54.181805 
3416.964915  	54.326195 
3418.401822  	54.536577 
3419.838729  	54.716406 
3421.275636  	54.844931 
3422.712543  	55.132306 
3424.149450  	55.330992 
3425.586357  	55.522522 
3427.023264  	55.767087 
3428.460171  	55.894942 
3429.897078  	56.119374 
3431.333985  	56.335093 
3432.770892  	56.473360 
3434.207799  	56.726312 
3435.644706  	56.905847 
3437.081613  	57.090520 
3438.518520  	57.319349 
3439.955427  	57.453289 
3441.392334  	57.749074 
3442.829241  	58.065715 
3444.266148  	58.228378 
3445.703055  	58.442015 
3447.139962  	58.627380 
3448.576869  	58.895022 
3450.013776  	59.196068 
3451.450683  	59.329093 
3452.887590  	59.554046 
3454.324497  	59.781333 
3455.761404  	59.960754 
3457.198311  	60.285620 
3458.635219  	60.457617 
3460.072126  	60.591607 
3461.509033  	60.893997 
3462.945940  	61.097232 
3464.382847  	61.315132 
3465.819754  	61.529889 
3467.256661  	61.682004 
3468.693568  	61.952395 
3470.130475  	62.134470 
3471.567382  	62.327047 
3473.004289  	62.646300 
3474.441196  	62.833634 
3475.878103  	63.075556 
3477.315010  	63.318181 
3478.751917  	63.436827 
3480.188824  	63.744307 
3481.625731  	64.059658 
3483.062638  	64.259216 
3484.499545  	64.493686 
3485.936452  	64.641440 
3487.373359  	64.863217 
3488.810266  	65.140942 
3490.247173  	65.326921 
3491.684080  	65.604871 
3493.120987  	65.833614 
3494.557894  	66.017686 
3495.994801  	66.281145 
3497.431708  	66.452240 
3498.868615  	66.701262 
3500.305522  	66.977148 
3501.742429  	67.096599 
3503.179336  	67.350062 
3504.616243  	67.669363 
3506.053150  	67.898905 
3507.490058  	68.115333 
3508.926965  	68.254435 
3510.363872  	68.522328 
3511.800779  	68.837155 
3513.237686  	68.993717 
3514.674593  	69.237054 
3516.111500  	69.477106 
3517.548407  	69.695989 
3518.985314  	70.008316 
3520.422221  	70.180095 
3521.859128  	70.371971 
3523.296035  	70.673229 
3524.732942  	70.850982 
3526.169849  	71.066651 
3527.606756  	71.309968 
3529.043663  	71.544657 
3530.480570  	71.821079 
3531.917477  	71.997307 
3533.354384  	72.253775 
3534.791291  	72.531676 
3536.228198  	72.676199 
3537.665105  	72.967759 
3539.102012  	73.231479 
3540.538919  	73.363935 
3541.975826  	73.595544 
3543.412733  	73.783061 
3544.849640  	74.016302 
3546.286547  	74.372890 
3547.723454  	74.617601 
3549.160361  	74.845312 
3550.597268  	75.034375 
3552.034175  	75.220208 
3553.471082  	75.545762 
3554.907989  	75.750623 
3556.344896  	75.947588 
3557.781804  	76.239810 
3559.218711  	76.435171 
3560.655618  	76.635299 
3562.092525  	76.874933 
3563.529432  	77.066385 
3564.966339  	77.282748 
3566.403246  	77.519960 
3567.840153  	77.827788 
3569.277060  	78.125586 
3570.713967  	78.280530 
3572.150874  	78.501515 
3573.587781  	78.738377 
3575.024688  	78.884911 
3576.461595  	79.095547 
3577.898502  	79.302233 
3579.335409  	79.533412 
3580.772316  	79.809894 
3582.209223  	79.950710 
3583.646130  	80.089937 
3585.083037  	80.256694 
3586.519944  	80.416236 
3587.956851  	80.826283 
3589.393758  	81.153309 
3590.830665  	81.241520 
3592.267572  	81.394015 
3593.704479  	81.543997 
3595.141386  	81.768795 
3596.578293  	82.028895 
3598.015200  	82.191923 
3599.452107  	82.413137 
3600.889014  	82.592516 
3602.325921  	82.723870 
3603.762828  	82.985681 
3605.199735  	83.193663 
3606.636642  	83.351508 
3608.073550  	83.575343 
3609.510457  	83.789290 
3610.947364  	84.028616 
3612.384271  	84.226989 
3613.821178  	84.479985 
3615.258085  	84.765998 
3616.694992  	84.840255 
3618.131899  	84.993628 
3619.568806  	85.332997 
3621.005713  	85.555907 
3622.442620  	85.681370 
3623.879527  	85.741048 
3625.316434  	85.908535 
3626.753341  	86.208947 
3628.190248  	86.373754 
3629.627155  	86.810715 
3631.064062  	87.268048 
3632.500969  	87.240392 
3633.937876  	87.455524 
3635.374783  	87.783370 
3636.811690  	87.939830 
3638.248597  	88.174950 
3639.685504  	88.372035 
3641.122411  	88.578305 
3642.559318  	88.872224 
3643.996225  	89.104864 
3645.433132  	89.349522 
3646.870039  	89.611155 
3648.306946  	89.837712 
3649.743853  	90.147636 
3651.180760  	90.452752 
3652.617667  	90.716469 
3654.054574  	90.936777 
3655.491481  	91.141908 
3656.928389  	91.443730 
3658.365296  	91.706119 
3659.802203  	91.915331 
3661.239110  	92.212208 
3662.676017  	92.454654 
3664.112924  	92.668264 
3665.549831  	92.940658 
3666.986738  	93.178984 
3668.423645  	93.429476 
3669.860552  	93.706214 
3671.297459  	93.981732 
3672.734366  	94.242289 
3674.171273  	94.438261 
3675.608180  	94.714493 
3677.045087  	95.081928 
3678.481994  	95.220289 
3679.918901  	95.413241 
3681.355808  	95.642303 
3682.792715  	95.820652 
3684.229622  	95.979282 
3685.666529  	96.110105 
3687.103436  	96.227172 
3688.540343  	96.404924 
3689.977250  	96.556769 
3691.414157  	96.715721 
3692.851064  	96.881536 
3694.287971  	96.999934 
3695.724878  	97.139674 
3697.161785  	97.255571 
3698.598692  	97.346459 
3700.035599  	97.436124 
3701.472506  	97.507157 
3702.909413  	97.618068 
3704.346320  	97.684161 
3705.783227  	97.685558 
3707.220135  	97.698407 
3708.657042  	97.747166 
3710.093949  	97.825590 
3711.530856  	97.962701 
3712.967763  	98.006388 
3714.404670  	98.021364 
3715.841577  	98.051918 
3717.278484  	98.065869 
3718.715391  	98.116688 
3720.152298  	98.146182 
3721.589205  	98.165000 
3723.026112  	98.224943 
3724.463019  	98.226475 
3725.899926  	98.244713 
3727.336833  	98.302357 
3728.773740  	98.338523 
3730.210647  	98.432330 
3731.647554  	98.461915 
3733.084461  	98.340999 
3734.521368  	98.358224 
3735.958275  	98.494607 
3737.395182  	98.630943 
3738.832089  	98.692383 
3740.268996  	98.710583 
3741.705903  	98.722495 
3743.142810  	98.706290 
3744.579717  	98.702842 
3746.016624  	98.839774 
3747.453531  	98.870499 
3748.890438  	98.878384 
3750.327345  	98.935912 
3751.764252  	98.915048 
3753.201159  	98.925994 
3754.638066  	98.968525 
3756.074973  	98.976545 
3757.511881  	99.004064 
3758.948788  	99.033254 
3760.385695  	99.114339 
3761.822602  	99.188242 
3763.259509  	99.160424 
3764.696416  	99.138115 
3766.133323  	99.111174 
3767.570230  	99.049988 
3769.007137  	99.077455 
3770.444044  	99.151448 
3771.880951  	99.130945 
3773.317858  	99.094499 
3774.754765  	99.084070 
3776.191672  	99.095938 
3777.628579  	99.098595 
3779.065486  	99.067310 
3780.502393  	99.061702 
3781.939300  	99.074189 
3783.376207  	99.054492 
3784.813114  	99.039527 
3786.250021  	99.041763 
3787.686928  	99.076150 
3789.123835  	99.071746 
3790.560742  	99.034955 
3791.997649  	99.027417 
3793.434556  	99.093197 
3794.871463  	99.181856 
3796.308370  	99.255394 
3797.745277  	99.226488 
3799.182184  	99.243726 
3800.619091  	99.293700 
3802.055998  	99.152768 
3803.492905  	99.106476 
3804.929812  	99.223437 
3806.366720  	99.282061 
3807.803627  	99.263471 
3809.240534  	99.233935 
3810.677441  	99.247611 
3812.114348  	99.274717 
3813.551255  	99.313225 
3814.988162  	99.367362 
3816.425069  	99.374496 
3817.861976  	99.314488 
3819.298883  	99.321172 
3820.735790  	99.334532 
3822.172697  	99.321364 
3823.609604  	99.372848 
3825.046511  	99.419168 
3826.483418  	99.406965 
3827.920325  	99.350110 
3829.357232  	99.363382 
3830.794139  	99.440429 
3832.231046  	99.446479 
3833.667953  	99.417864 
3835.104860  	99.418319 
3836.541767  	99.352094 
3837.978674  	99.335514 
3839.415581  	99.415538 
3840.852488  	99.427790 
3842.289395  	99.379495 
3843.726302  	99.391406 
3845.163209  	99.406011 
3846.600116  	99.388077 
3848.037023  	99.391792 
3849.473930  	99.457831 
3850.910837  	99.463390 
3852.347744  	99.362012 
3853.784651  	99.319270 
3855.221558  	99.404390 
3856.658466  	99.362856 
3858.095373  	99.338951 
3859.532280  	99.359763 
3860.969187  	99.379264 
3862.406094  	99.359870 
3863.843001  	99.400341 
3865.279908  	99.473948 
3866.716815  	99.417603 
3868.153722  	99.379151 
3869.590629  	99.439373 
3871.027536  	99.427826 
3872.464443  	99.366607 
3873.901350  	99.384162 
3875.338257  	99.374312 
3876.775164  	99.350336 
3878.212071  	99.388505 
3879.648978  	99.427239 
3881.085885  	99.393747 
3882.522792  	99.339778 
3883.959699  	99.369462 
3885.396606  	99.392420 
3886.833513  	99.366462 
3888.270420  	99.372804 
3889.707327  	99.387998 
3891.144234  	99.368508 
3892.581141  	99.346832 
3894.018048  	99.345280 
3895.454955  	99.357537 
3896.891862  	99.351634 
3898.328769  	99.322081 
3899.765676  	99.325565 
3901.202583  	99.314486 
3902.639490  	99.311909 
3904.076397  	99.316592 
3905.513305  	99.280936 
3906.950212  	99.272564 
3908.387119  	99.321695 
3909.824026  	99.317860 
3911.260933  	99.294633 
3912.697840  	99.316833 
3914.134747  	99.343133 
3915.571654  	99.344896 
3917.008561  	99.346539 
3918.445468  	99.372142 
3919.882375  	99.362332 
3921.319282  	99.331353 
3922.756189  	99.337645 
3924.193096  	99.340990 
3925.630003  	99.326389 
3927.066910  	99.355964 
3928.503817  	99.357358 
3929.940724  	99.332929 
3931.377631  	99.333648 
3932.814538  	99.324931 
3934.251445  	99.338271 
3935.688352  	99.342315 
3937.125259  	99.343249 
3938.562166  	99.363803 
3939.999073  	99.347429 
3941.435980  	99.336117 
3942.872887  	99.367376 
3944.309794  	99.368891 
3945.746701  	99.351606 
3947.183608  	99.364976 
3948.620515  	99.378464 
3950.057422  	99.400326 
3951.494329  	99.407825 
3952.931236  	99.428944 
3954.368143  	99.436649 
3955.805051  	99.391755 
3957.241958  	99.364746 
3958.678865  	99.419367 
3960.115772  	99.417993 
3961.552679  	99.375856 
3962.989586  	99.341815 
3964.426493  	99.346682 
3965.863400  	99.437641 
3967.300307  	99.504154 
3968.737214  	99.503893 
3970.174121  	99.487670 
3971.611028  	99.462897 
3973.047935  	99.476398 
3974.484842  	99.464203 
3975.921749  	99.383123 
3977.358656  	99.378231 
3978.795563  	99.449214 
3980.232470  	99.504291 
3981.669377  	99.517406 
3983.106284  	99.484107 
3984.543191  	99.485039 
3985.980098  	99.515980 
3987.417005  	99.502803 
3988.853912  	99.490540 
3990.290819  	99.481566 
3991.727726  	99.458609 
3993.164633  	99.466265 
3994.601540  	99.477026 
3996.038447  	99.474501 
3997.475354  	99.481339 
3998.912261  	99.490656 
4000.349168  	99.504535 