##TITLE=No Description
##DATA TYPE=INFRARED SPECTRUM
##XUNITS=1/CM
##YUNITS=%T
399.460154  	50.288204 
400.897061  	48.229953 
402.333968  	47.578954 
403.770875  	47.244062 
405.207782  	47.072999 
406.644689  	47.931112 
408.081596  	48.172546 
409.518503  	48.535716 
410.955410  	48.328419 
412.392317  	47.565159 
413.829224  	47.962667 
415.266131  	48.047952 
416.703038  	48.292927 
418.139945  	48.591458 
419.576852  	46.895899 
421.013759  	48.086858 
422.450666  	48.724243 
423.887574  	47.922306 
425.324481  	48.871184 
426.761388  	48.903105 
428.198295  	47.694126 
429.635202  	48.118005 
431.072109  	48.540815 
432.509016  	48.470358 
433.945923  	48.722950 
435.382830  	48.562535 
436.819737  	48.566426 
438.256644  	48.407204 
439.693551  	48.019088 
441.130458  	48.176746 
442.567365  	48.392213 
444.004272  	48.994235 
445.441179  	49.263167 
446.878086  	48.911727 
448.314993  	49.041141 
449.751900  	48.778826 
451.188807  	48.414494 
452.625714  	48.711362 
454.062621  	48.207899 
455.499528  	48.045761 
456.936435  	48.885232 
458.373342  	49.059778 
459.810249  	49.232816 
461.247156  	49.399430 
462.684063  	49.129440 
464.120970  	49.028042 
465.557877  	48.717283 
466.994784  	48.682450 
468.431691  	48.912806 
469.868598  	48.431386 
471.305505  	48.431909 
472.742413  	49.078233 
474.179320  	48.827719 
475.616227  	48.510692 
477.053134  	48.730198 
478.490041  	49.375505 
479.926948  	49.727082 
481.363855  	49.482640 
482.800762  	49.393893 
484.237669  	49.416332 
485.674576  	49.351031 
487.111483  	49.332562 
488.548390  	49.154767 
489.985297  	49.233883 
491.422204  	49.502177 
492.859111  	49.394877 
494.296018  	49.324929 
495.732925  	49.382181 
497.169832  	49.654699 
498.606739  	50.016804 
500.043646  	49.741127 
501.480553  	49.526907 
502.917460  	49.832909 
504.354367  	49.808883 
505.791274  	49.854185 
507.228181  	50.025408 
508.665088  	49.985779 
510.101995  	50.141025 
511.538902  	50.207410 
512.975809  	50.009783 
514.412716  	50.065969 
515.849623  	50.341920 
517.286530  	50.529603 
518.723437  	50.400436 
520.160344  	50.338817 
521.597251  	50.604709 
523.034159  	50.672512 
524.471066  	50.523976 
525.907973  	50.453719 
527.344880  	50.423095 
528.781787  	50.475485 
530.218694  	50.516974 
531.655601  	50.617598 
533.092508  	50.789652 
534.529415  	50.687932 
535.966322  	50.654890 
537.403229  	50.934854 
538.840136  	51.020353 
540.277043  	50.947710 
541.713950  	50.959715 
543.150857  	51.034906 
544.587764  	51.146213 
546.024671  	51.210341 
547.461578  	51.330182 
548.898485  	51.406434 
550.335392  	51.329982 
551.772299  	51.384572 
553.209206  	51.469390 
554.646113  	51.496128 
556.083020  	51.569887 
557.519927  	51.561960 
558.956834  	51.744490 
560.393741  	52.045241 
561.830648  	51.979700 
563.267555  	51.894115 
564.704462  	51.982603 
566.141369  	52.044699 
567.578276  	52.191191 
569.015183  	52.285828 
570.452090  	52.328971 
571.888997  	52.447725 
573.325905  	52.492583 
574.762812  	52.583204 
576.199719  	52.707675 
577.636626  	52.754985 
579.073533  	52.917747 
580.510440  	53.040400 
581.947347  	53.046646 
583.384254  	53.135068 
584.821161  	53.205675 
586.258068  	53.259108 
587.694975  	53.299911 
589.131882  	53.303425 
590.568789  	53.421758 
592.005696  	53.504806 
593.442603  	53.543914 
594.879510  	53.710603 
596.316417  	53.810767 
597.753324  	53.908728 
599.190231  	54.052197 
600.627138  	54.035158 
602.064045  	54.082055 
603.500952  	54.244701 
604.937859  	54.326422 
606.374766  	54.413905 
607.811673  	54.502454 
609.248580  	54.604068 
610.685487  	54.759238 
612.122394  	54.823152 
613.559301  	54.876128 
614.996208  	55.020461 
616.433115  	55.183586 
617.870022  	55.343954 
619.306929  	55.425437 
620.743836  	55.449849 
622.180744  	55.540786 
623.617651  	55.659397 
625.054558  	55.787465 
626.491465  	55.873710 
627.928372  	55.874412 
629.365279  	55.936897 
630.802186  	56.087383 
632.239093  	56.233834 
633.676000  	56.372493 
635.112907  	56.473281 
636.549814  	56.556145 
637.986721  	56.668848 
639.423628  	56.758783 
640.860535  	56.845527 
642.297442  	56.951493 
643.734349  	57.035719 
645.171256  	57.133499 
646.608163  	57.280988 
648.045070  	57.420438 
649.481977  	57.569084 
650.918884  	57.710246 
652.355791  	57.840468 
653.792698  	57.978838 
655.229605  	58.140531 
656.666512  	58.262585 
658.103419  	58.345416 
659.540326  	58.479851 
660.977233  	58.663173 
662.414140  	58.786259 
663.851047  	58.875869 
665.287954  	59.009827 
666.724861  	59.152068 
668.161768  	59.253331 
669.598675  	59.362406 
671.035582  	59.497507 
672.472490  	59.621381 
673.909397  	59.736495 
675.346304  	59.865561 
676.783211  	60.026484 
678.220118  	60.184295 
679.657025  	60.305891 
681.093932  	60.403377 
682.530839  	60.551607 
683.967746  	60.729571 
685.404653  	60.892142 
686.841560  	61.032006 
688.278467  	61.140069 
689.715374  	61.261398 
691.152281  	61.400533 
692.589188  	61.540412 
694.026095  	61.718214 
695.463002  	61.859258 
696.899909  	61.976977 
698.336816  	62.127788 
699.773723  	62.266883 
701.210630  	62.377213 
702.647537  	62.489453 
704.084444  	62.590138 
705.521351  	62.773847 
706.958258  	63.004680 
708.395165  	63.137587 
709.832072  	63.281655 
711.268979  	63.451900 
712.705886  	63.602440 
714.142793  	63.754265 
715.579700  	63.892160 
717.016607  	64.034702 
718.453514  	64.192698 
719.890421  	64.357631 
721.327328  	64.549812 
722.764236  	64.734396 
724.201143  	64.902124 
725.638050  	65.072891 
727.074957  	65.192045 
728.511864  	65.277256 
729.948771  	65.417649 
731.385678  	65.602232 
732.822585  	65.771962 
734.259492  	65.892514 
735.696399  	66.067329 
737.133306  	66.317179 
738.570213  	66.463240 
740.007120  	66.588505 
741.444027  	66.800430 
742.880934  	66.943225 
744.317841  	67.064306 
745.754748  	67.231017 
747.191655  	67.375703 
748.628562  	67.579954 
750.065469  	67.783859 
751.502376  	67.906492 
752.939283  	68.077864 
754.376190  	68.255882 
755.813097  	68.392887 
757.250004  	68.548512 
758.686911  	68.677855 
760.123818  	68.850599 
761.560725  	69.083827 
762.997632  	69.237687 
764.434539  	69.394650 
765.871446  	69.615431 
767.308353  	69.793304 
768.745260  	69.957794 
770.182167  	70.141927 
771.619075  	70.311374 
773.055982  	70.477189 
774.492889  	70.635868 
775.929796  	70.796413 
777.366703  	70.973246 
778.803610  	71.163451 
780.240517  	71.355746 
781.677424  	71.490695 
783.114331  	71.599912 
784.551238  	71.794962 
785.988145  	72.038727 
787.425052  	72.233591 
788.861959  	72.384963 
790.298866  	72.529693 
791.735773  	72.692201 
793.172680  	72.875876 
794.609587  	73.047521 
796.046494  	73.204621 
797.483401  	73.401922 
798.920308  	73.622237 
800.357215  	73.799063 
801.794122  	73.971823 
803.231029  	74.155770 
804.667936  	74.315235 
806.104843  	74.525466 
807.541750  	74.787384 
808.978657  	74.976552 
810.415564  	75.089457 
811.852471  	75.210907 
813.289378  	75.407302 
814.726285  	75.653740 
816.163192  	75.832934 
817.600099  	75.956589 
819.037006  	76.122639 
820.473913  	76.321560 
821.910821  	76.501465 
823.347728  	76.653511 
824.784635  	76.833286 
826.221542  	77.043311 
827.658449  	77.211755 
829.095356  	77.399598 
830.532263  	77.639818 
831.969170  	77.834716 
833.406077  	78.005191 
834.842984  	78.181280 
836.279891  	78.339750 
837.716798  	78.514622 
839.153705  	78.668892 
840.590612  	78.800404 
842.027519  	78.976876 
843.464426  	79.161930 
844.901333  	79.346182 
846.338240  	79.548867 
847.775147  	79.743661 
849.212054  	79.938994 
850.648961  	80.121997 
852.085868  	80.301774 
853.522775  	80.482845 
854.959682  	80.618001 
856.396589  	80.776383 
857.833496  	80.968415 
859.270403  	81.120684 
860.707310  	81.303300 
862.144217  	81.490267 
863.581124  	81.630264 
865.018031  	81.815618 
866.454938  	81.995851 
867.891845  	82.135690 
869.328752  	82.305854 
870.765660  	82.459777 
872.202567  	82.594786 
873.639474  	82.739371 
875.076381  	82.899153 
876.513288  	83.102497 
877.950195  	83.257363 
879.387102  	83.375074 
880.824009  	83.575660 
882.260916  	83.769386 
883.697823  	83.900634 
885.134730  	84.028016 
886.571637  	84.166286 
888.008544  	84.329173 
889.445451  	84.465127 
890.882358  	84.589399 
892.319265  	84.750956 
893.756172  	84.869183 
895.193079  	84.985803 
896.629986  	85.143716 
898.066893  	85.283200 
899.503800  	85.457386 
900.940707  	85.599659 
902.377614  	85.659247 
903.814521  	85.777186 
905.251428  	85.903732 
906.688335  	85.994681 
908.125242  	86.124984 
909.562149  	86.246352 
910.999056  	86.382128 
912.435963  	86.521704 
913.872870  	86.596037 
915.309777  	86.712060 
916.746684  	86.853395 
918.183591  	86.945202 
919.620498  	87.068540 
921.057406  	87.194722 
922.494313  	87.286607 
923.931220  	87.388732 
925.368127  	87.488820 
926.805034  	87.593789 
928.241941  	87.701947 
929.678848  	87.808533 
931.115755  	87.913847 
932.552662  	87.994946 
933.989569  	88.103339 
935.426476  	88.209067 
936.863383  	88.255660 
938.300290  	88.348436 
939.737197  	88.466306 
941.174104  	88.533303 
942.611011  	88.603560 
944.047918  	88.669216 
945.484825  	88.756646 
946.921732  	88.872812 
948.358639  	88.928087 
949.795546  	88.977458 
951.232453  	89.060909 
952.669360  	89.136911 
954.106267  	89.223114 
955.543174  	89.290720 
956.980081  	89.371500 
958.416988  	89.495792 
959.853895  	89.562471 
961.290802  	89.586553 
962.727709  	89.614055 
964.164616  	89.645911 
965.601523  	89.733436 
967.038430  	89.813309 
968.475337  	89.846439 
969.912244  	89.902468 
971.349152  	89.956798 
972.786059  	90.013004 
974.222966  	90.089240 
975.659873  	90.139326 
977.096780  	90.181799 
978.533687  	90.231879 
979.970594  	90.287354 
981.407501  	90.338943 
982.844408  	90.356434 
984.281315  	90.398253 
985.718222  	90.471640 
987.155129  	90.510838 
988.592036  	90.546110 
990.028943  	90.590687 
991.465850  	90.637933 
992.902757  	90.684816 
994.339664  	90.697799 
995.776571  	90.724914 
997.213478  	90.769607 
998.650385  	90.786192 
1000.087292  	90.819138 
1001.524199  	90.841227 
1002.961106  	90.835332 
1004.398013  	90.862321 
1005.834920  	90.889275 
1007.271827  	90.917026 
1008.708734  	90.964883 
1010.145641  	90.993048 
1011.582548  	91.031903 
1013.019455  	91.073480 
1014.456362  	91.096402 
1015.893269  	91.140093 
1017.330176  	91.171805 
1018.767083  	91.200681 
1020.203991  	91.258359 
1021.640898  	91.289160 
1023.077805  	91.300399 
1024.514712  	91.305053 
1025.951619  	91.297251 
1027.388526  	91.311698 
1028.825433  	91.311406 
1030.262340  	91.287810 
1031.699247  	91.293242 
1033.136154  	91.303428 
1034.573061  	91.292762 
1036.009968  	91.281086 
1037.446875  	91.302817 
1038.883782  	91.344974 
1040.320689  	91.355034 
1041.757596  	91.373982 
1043.194503  	91.413039 
1044.631410  	91.437585 
1046.068317  	91.498459 
1047.505224  	91.545492 
1048.942131  	91.531652 
1050.379038  	91.557496 
1051.815945  	91.619280 
1053.252852  	91.671723 
1054.689759  	91.702922 
1056.126666  	91.702234 
1057.563573  	91.747918 
1059.000480  	91.797090 
1060.437387  	91.775018 
1061.874294  	91.786177 
1063.311201  	91.819281 
1064.748108  	91.826198 
1066.185015  	91.849689 
1067.621922  	91.842170 
1069.058829  	91.833544 
1070.495737  	91.870734 
1071.932644  	91.876513 
1073.369551  	91.870498 
1074.806458  	91.892440 
1076.243365  	91.916560 
1077.680272  	91.919082 
1079.117179  	91.873179 
1080.554086  	91.856596 
1081.990993  	91.910731 
1083.427900  	91.948131 
1084.864807  	91.961121 
1086.301714  	91.947709 
1087.738621  	91.900706 
1089.175528  	91.892929 
1090.612435  	91.926974 
1092.049342  	91.949301 
1093.486249  	91.933479 
1094.923156  	91.902465 
1096.360063  	91.908842 
1097.796970  	91.913301 
1099.233877  	91.900822 
1100.670784  	91.921346 
1102.107691  	91.944447 
1103.544598  	91.959248 
1104.981505  	91.973290 
1106.418412  	91.977441 
1107.855319  	92.000720 
1109.292226  	91.998056 
1110.729133  	91.970383 
1112.166040  	92.001214 
1113.602947  	92.037666 
1115.039854  	92.037113 
1116.476761  	92.026512 
1117.913668  	92.005471 
1119.350575  	92.021073 
1120.787483  	92.049441 
1122.224390  	92.046808 
1123.661297  	92.070740 
1125.098204  	92.095327 
1126.535111  	92.097946 
1127.972018  	92.119256 
1129.408925  	92.122762 
1130.845832  	92.110397 
1132.282739  	92.107813 
1133.719646  	92.108806 
1135.156553  	92.134343 
1136.593460  	92.148106 
1138.030367  	92.125712 
1139.467274  	92.096444 
1140.904181  	92.070035 
1142.341088  	92.096507 
1143.777995  	92.145123 
1145.214902  	92.130539 
1146.651809  	92.112749 
1148.088716  	92.117607 
1149.525623  	92.105128 
1150.962530  	92.105664 
1152.399437  	92.117273 
1153.836344  	92.119999 
1155.273251  	92.114304 
1156.710158  	92.103794 
1158.147065  	92.114164 
1159.583972  	92.117418 
1161.020879  	92.099675 
1162.457786  	92.097196 
1163.894693  	92.092901 
1165.331600  	92.103954 
1166.768507  	92.136699 
1168.205414  	92.123678 
1169.642322  	92.095783 
1171.079229  	92.093405 
1172.516136  	92.077761 
1173.953043  	92.068599 
1175.389950  	92.090140 
1176.826857  	92.109053 
1178.263764  	92.103683 
1179.700671  	92.088713 
1181.137578  	92.089324 
1182.574485  	92.092212 
1184.011392  	92.090547 
1185.448299  	92.087299 
1186.885206  	92.056915 
1188.322113  	92.030915 
1189.759020  	92.034123 
1191.195927  	92.030200 
1192.632834  	92.035061 
1194.069741  	92.047850 
1195.506648  	92.036707 
1196.943555  	92.029912 
1198.380462  	92.033425 
1199.817369  	92.036459 
1201.254276  	92.042371 
1202.691183  	92.030843 
1204.128090  	92.018273 
1205.564997  	92.023347 
1207.001904  	92.028079 
1208.438811  	92.031228 
1209.875718  	92.023725 
1211.312625  	92.013631 
1212.749532  	92.026955 
1214.186439  	92.037879 
1215.623346  	92.024470 
1217.060253  	92.010710 
1218.497160  	92.023716 
1219.934068  	92.045104 
1221.370975  	92.037186 
1222.807882  	92.029006 
1224.244789  	92.036846 
1225.681696  	92.029971 
1227.118603  	92.028907 
1228.555510  	92.029511 
1229.992417  	92.015181 
1231.429324  	92.024688 
1232.866231  	92.039537 
1234.303138  	92.035478 
1235.740045  	92.034087 
1237.176952  	92.017924 
1238.613859  	91.994750 
1240.050766  	91.989646 
1241.487673  	91.994667 
1242.924580  	92.009754 
1244.361487  	92.011074 
1245.798394  	91.991596 
1247.235301  	91.982294 
1248.672208  	91.974979 
1250.109115  	91.965903 
1251.546022  	91.966476 
1252.982929  	91.977612 
1254.419836  	91.993414 
1255.856743  	91.983351 
1257.293650  	91.962768 
1258.730557  	91.960381 
1260.167464  	91.957640 
1261.604371  	91.976750 
1263.041278  	91.998778 
1264.478185  	91.970698 
1265.915092  	91.950322 
1267.351999  	91.965077 
1268.788907  	91.967683 
1270.225814  	91.954893 
1271.662721  	91.939493 
1273.099628  	91.936670 
1274.536535  	91.923474 
1275.973442  	91.891944 
1277.410349  	91.904354 
1278.847256  	91.928208 
1280.284163  	91.919382 
1281.721070  	91.926127 
1283.157977  	91.929680 
1284.594884  	91.931265 
1286.031791  	91.956404 
1287.468698  	91.947495 
1288.905605  	91.924673 
1290.342512  	91.927513 
1291.779419  	91.927347 
1293.216326  	91.939196 
1294.653233  	91.947711 
1296.090140  	91.947297 
1297.527047  	91.971190 
1298.963954  	91.975567 
1300.400861  	91.964929 
1301.837768  	91.979979 
1303.274675  	91.993535 
1304.711582  	91.999723 
1306.148489  	92.010375 
1307.585396  	92.006814 
1309.022303  	92.012320 
1310.459210  	92.009878 
1311.896117  	92.007797 
1313.333024  	92.009124 
1314.769931  	92.000791 
1316.206838  	91.999887 
1317.643745  	92.016254 
1319.080653  	92.015267 
1320.517560  	92.013791 
1321.954467  	92.019018 
1323.391374  	92.023326 
1324.828281  	92.036410 
1326.265188  	92.025073 
1327.702095  	92.025529 
1329.139002  	92.037220 
1330.575909  	92.035334 
1332.012816  	92.047830 
1333.449723  	92.051867 
1334.886630  	92.019071 
1336.323537  	91.995833 
1337.760444  	91.981965 
1339.197351  	91.969615 
1340.634258  	91.965695 
1342.071165  	91.964842 
1343.508072  	91.982884 
1344.944979  	91.990927 
1346.381886  	91.982851 
1347.818793  	91.988595 
1349.255700  	91.962456 
1350.692607  	91.921466 
1352.129514  	91.931047 
1353.566421  	91.944487 
1355.003328  	91.921172 
1356.440235  	91.892017 
1357.877142  	91.890442 
1359.314049  	91.904176 
1360.750956  	91.895775 
1362.187863  	91.878618 
1363.624770  	91.872167 
1365.061677  	91.860203 
1366.498584  	91.836438 
1367.935491  	91.780043 
1369.372399  	91.734463 
1370.809306  	91.749372 
1372.246213  	91.757145 
1373.683120  	91.710765 
1375.120027  	91.620031 
1376.556934  	91.573989 
1377.993841  	91.584189 
1379.430748  	91.593236 
1380.867655  	91.607880 
1382.304562  	91.621971 
1383.741469  	91.568982 
1385.178376  	91.530416 
1386.615283  	91.541890 
1388.052190  	91.520750 
1389.489097  	91.526420 
1390.926004  	91.538121 
1392.362911  	91.511979 
1393.799818  	91.488597 
1395.236725  	91.475287 
1396.673632  	91.524276 
1398.110539  	91.620153 
1399.547446  	91.636372 
1400.984353  	91.602138 
1402.421260  	91.626617 
1403.858167  	91.632227 
1405.295074  	91.630553 
1406.731981  	91.655349 
1408.168888  	91.657255 
1409.605795  	91.655173 
1411.042702  	91.659004 
1412.479609  	91.668832 
1413.916516  	91.728005 
1415.353423  	91.784815 
1416.790330  	91.816739 
1418.227238  	91.813083 
1419.664145  	91.736004 
1421.101052  	91.762836 
1422.537959  	91.836817 
1423.974866  	91.821685 
1425.411773  	91.771483 
1426.848680  	91.788990 
1428.285587  	91.783740 
1429.722494  	91.772827 
1431.159401  	91.783578 
1432.596308  	91.798287 
1434.033215  	91.817064 
1435.470122  	91.836984 
1436.907029  	91.775865 
1438.343936  	91.718460 
1439.780843  	91.765490 
1441.217750  	91.824267 
1442.654657  	91.826488 
1444.091564  	91.798869 
1445.528471  	91.776089 
1446.965378  	91.800703 
1448.402285  	91.816489 
1449.839192  	91.837200 
1451.276099  	91.895152 
1452.713006  	91.873069 
1454.149913  	91.835036 
1455.586820  	91.965320 
1457.023727  	92.106945 
1458.460634  	91.891207 
1459.897541  	91.772709 
1461.334448  	91.724584 
1462.771355  	91.760743 
1464.208262  	91.837559 
1465.645169  	91.838374 
1467.082076  	91.846712 
1468.518984  	91.833532 
1469.955891  	91.802564 
1471.392798  	91.806746 
1472.829705  	91.711832 
1474.266612  	91.750923 
1475.703519  	91.849786 
1477.140426  	91.680376 
1478.577333  	91.553930 
1480.014240  	91.581779 
1481.451147  	91.594612 
1482.888054  	91.681884 
1484.324961  	91.758554 
1485.761868  	91.708345 
1487.198775  	91.630229 
1488.635682  	91.584984 
1490.072589  	91.563327 
1491.509496  	91.512214 
1492.946403  	91.471389 
1494.383310  	91.469647 
1495.820217  	91.421944 
1497.257124  	91.318829 
1498.694031  	91.372092 
1500.130938  	91.425005 
1501.567845  	91.386100 
1503.004752  	91.347140 
1504.441659  	91.338881 
1505.878566  	91.316081 
1507.315473  	91.138316 
1508.752380  	91.112573 
1510.189287  	91.139446 
1511.626194  	91.048265 
1513.063101  	90.974053 
1514.500008  	91.002676 
1515.936915  	91.004002 
1517.373822  	91.009518 
1518.810730  	91.040154 
1520.247637  	91.016375 
1521.684544  	90.834008 
1523.121451  	90.713181 
1524.558358  	90.768113 
1525.995265  	90.725894 
1527.432172  	90.560795 
1528.869079  	90.510342 
1530.305986  	90.460300 
1531.742893  	90.403626 
1533.179800  	90.406183 
1534.616707  	90.312530 
1536.053614  	90.231535 
1537.490521  	90.210870 
1538.927428  	90.137155 
1540.364335  	89.941655 
1541.801242  	89.812826 
1543.238149  	89.768146 
1544.675056  	89.731019 
1546.111963  	89.561102 
1547.548870  	89.466112 
1548.985777  	89.452407 
1550.422684  	89.338884 
1551.859591  	89.256724 
1553.296498  	89.221180 
1554.733405  	89.053521 
1556.170312  	88.949993 
1557.607219  	88.923117 
1559.044126  	88.700055 
1560.481033  	88.559208 
1561.917940  	88.489814 
1563.354847  	88.403147 
1564.791754  	88.303171 
1566.228661  	88.158208 
1567.665569  	88.214478 
1569.102476  	88.273703 
1570.539383  	87.929776 
1571.976290  	87.727837 
1573.413197  	87.625948 
1574.850104  	87.499779 
1576.287011  	87.410214 
1577.723918  	87.228062 
1579.160825  	87.090836 
1580.597732  	86.962428 
1582.034639  	86.762415 
1583.471546  	86.650800 
1584.908453  	86.531096 
1586.345360  	86.372831 
1587.782267  	86.228934 
1589.219174  	85.935315 
1590.656081  	85.658226 
1592.092988  	85.519928 
1593.529895  	85.320919 
1594.966802  	85.124559 
1596.403709  	84.858931 
1597.840616  	84.530423 
1599.277523  	84.299583 
1600.714430  	83.992202 
1602.151337  	83.689527 
1603.588244  	83.423337 
1605.025151  	83.062243 
1606.462058  	82.734410 
1607.898965  	82.401113 
1609.335872  	81.998651 
1610.772779  	81.686709 
1612.209686  	81.353424 
1613.646593  	81.000785 
1615.083500  	80.753921 
1616.520407  	80.236246 
1617.957315  	79.757510 
1619.394222  	79.570862 
1620.831129  	79.297805 
1622.268036  	79.053850 
1623.704943  	78.599142 
1625.141850  	78.205200 
1626.578757  	78.135819 
1628.015664  	77.929930 
1629.452571  	77.736492 
1630.889478  	77.665215 
1632.326385  	77.493886 
1633.763292  	77.455842 
1635.200199  	77.434630 
1636.637106  	77.267913 
1638.074013  	77.476203 
1639.510920  	77.533561 
1640.947827  	77.553255 
1642.384734  	77.713193 
1643.821641  	77.812389 
1645.258548  	78.038096 
1646.695455  	78.440223 
1648.132362  	78.566617 
1649.569269  	78.750076 
1651.006176  	78.903783 
1652.443083  	78.968853 
1653.879990  	79.620474 
1655.316897  	79.794335 
1656.753804  	79.944841 
1658.190711  	80.272472 
1659.627618  	80.569876 
1661.064525  	80.920356 
1662.501432  	81.315936 
1663.938339  	81.674606 
1665.375246  	82.016640 
1666.812154  	82.229306 
1668.249061  	82.501731 
1669.685968  	83.005129 
1671.122875  	83.256483 
1672.559782  	83.509859 
1673.996689  	83.894930 
1675.433596  	84.211805 
1676.870503  	84.594760 
1678.307410  	84.941355 
1679.744317  	85.272166 
1681.181224  	85.636173 
1682.618131  	85.883305 
1684.055038  	86.097107 
1685.491945  	86.544129 
1686.928852  	86.840884 
1688.365759  	87.149757 
1689.802666  	87.443165 
1691.239573  	87.720557 
1692.676480  	88.084724 
1694.113387  	88.356219 
1695.550294  	88.606625 
1696.987201  	88.928298 
1698.424108  	89.137092 
1699.861015  	89.318494 
1701.297922  	89.475460 
1702.734829  	89.691027 
1704.171736  	89.946085 
1705.608643  	90.136316 
1707.045550  	90.339272 
1708.482457  	90.623408 
1709.919364  	90.819774 
1711.356271  	91.011599 
1712.793178  	91.260521 
1714.230085  	91.468740 
1715.666992  	91.672673 
1717.103900  	91.839193 
1718.540807  	91.977307 
1719.977714  	92.186337 
1721.414621  	92.347243 
1722.851528  	92.516234 
1724.288435  	92.717985 
1725.725342  	92.894179 
1727.162249  	93.106331 
1728.599156  	93.221199 
1730.036063  	93.270587 
1731.472970  	93.386132 
1732.909877  	93.507046 
1734.346784  	93.543115 
1735.783691  	93.619808 
1737.220598  	93.717261 
1738.657505  	93.794408 
1740.094412  	93.856527 
1741.531319  	93.987800 
1742.968226  	94.121330 
1744.405133  	94.156336 
1745.842040  	94.201906 
1747.278947  	94.324752 
1748.715854  	94.343534 
1750.152761  	94.395178 
1751.589668  	94.508045 
1753.026575  	94.571396 
1754.463482  	94.655159 
1755.900389  	94.719641 
1757.337296  	94.771201 
1758.774203  	94.895341 
1760.211110  	94.971172 
1761.648017  	95.033299 
1763.084924  	95.072489 
1764.521831  	95.063746 
1765.958738  	95.143357 
1767.395646  	95.219583 
1768.832553  	95.224292 
1770.269460  	95.285534 
1771.706367  	95.291208 
1773.143274  	95.253961 
1774.580181  	95.311804 
1776.017088  	95.344721 
1777.453995  	95.403193 
1778.890902  	95.478657 
1780.327809  	95.462962 
1781.764716  	95.449518 
1783.201623  	95.496215 
1784.638530  	95.542450 
1786.075437  	95.579251 
1787.512344  	95.595332 
1788.949251  	95.618462 
1790.386158  	95.672139 
1791.823065  	95.677272 
1793.259972  	95.674511 
1794.696879  	95.717682 
1796.133786  	95.762219 
1797.570693  	95.787150 
1799.007600  	95.773803 
1800.444507  	95.776581 
1801.881414  	95.777211 
1803.318321  	95.775910 
1804.755228  	95.796422 
1806.192135  	95.809295 
1807.629042  	95.840101 
1809.065949  	95.900795 
1810.502856  	95.913527 
1811.939763  	95.931580 
1813.376670  	95.970602 
1814.813577  	95.989814 
1816.250485  	96.008253 
1817.687392  	96.022209 
1819.124299  	96.034801 
1820.561206  	96.047538 
1821.998113  	96.006029 
1823.435020  	96.012521 
1824.871927  	96.029440 
1826.308834  	95.985437 
1827.745741  	96.032570 
1829.182648  	96.089910 
1830.619555  	96.047858 
1832.056462  	96.033737 
1833.493369  	96.053740 
1834.930276  	96.103653 
1836.367183  	96.157184 
1837.804090  	96.139452 
1839.240997  	96.137482 
1840.677904  	96.162119 
1842.114811  	96.195558 
1843.551718  	96.258927 
1844.988625  	96.206231 
1846.425532  	96.161254 
1847.862439  	96.234315 
1849.299346  	96.225575 
1850.736253  	96.211453 
1852.173160  	96.280787 
1853.610067  	96.320398 
1855.046974  	96.292237 
1856.483881  	96.207007 
1857.920788  	96.163915 
1859.357695  	96.223578 
1860.794602  	96.227161 
1862.231509  	96.236280 
1863.668416  	96.285085 
1865.105323  	96.286924 
1866.542231  	96.326299 
1867.979138  	96.336082 
1869.416045  	96.275845 
1870.852952  	96.289548 
1872.289859  	96.266815 
1873.726766  	96.222708 
1875.163673  	96.202774 
1876.600580  	96.188219 
1878.037487  	96.242848 
1879.474394  	96.269832 
1880.911301  	96.227653 
1882.348208  	96.230003 
1883.785115  	96.220956 
1885.222022  	96.206700 
1886.658929  	96.255940 
1888.095836  	96.285026 
1889.532743  	96.274229 
1890.969650  	96.209479 
1892.406557  	96.183585 
1893.843464  	96.239777 
1895.280371  	96.259852 
1896.717278  	96.266824 
1898.154185  	96.266913 
1899.591092  	96.214460 
1901.027999  	96.240094 
1902.464906  	96.211544 
1903.901813  	96.176528 
1905.338720  	96.254048 
1906.775627  	96.269583 
1908.212534  	96.315958 
1909.649441  	96.344291 
1911.086348  	96.229601 
1912.523255  	96.276610 
1913.960162  	96.316194 
1915.397069  	96.258926 
1916.833977  	96.328388 
1918.270884  	96.296205 
1919.707791  	96.227309 
1921.144698  	96.335711 
1922.581605  	96.331518 
1924.018512  	96.253600 
1925.455419  	96.246791 
1926.892326  	96.295085 
1928.329233  	96.306957 
1929.766140  	96.302040 
1931.203047  	96.254934 
1932.639954  	96.285629 
1934.076861  	96.179159 
1935.513768  	96.216450 
1936.950675  	96.394138 
1938.387582  	96.293732 
1939.824489  	96.245365 
1941.261396  	96.228092 
1942.698303  	96.166501 
1944.135210  	96.097895 
1945.572117  	96.058663 
1947.009024  	96.179329 
1948.445931  	96.284257 
1949.882838  	96.087767 
1951.319745  	96.060033 
1952.756652  	96.084548 
1954.193559  	96.054954 
1955.630466  	96.275688 
1957.067373  	96.414187 
1958.504280  	96.461087 
1959.941187  	96.415128 
1961.378094  	96.064303 
1962.815001  	95.977502 
1964.251908  	96.135332 
1965.688816  	96.197708 
1967.125723  	96.419382 
1968.562630  	96.386948 
1969.999537  	96.225990 
1971.436444  	96.202570 
1972.873351  	95.974765 
1974.310258  	95.910914 
1975.747165  	96.130873 
1977.184072  	96.093113 
1978.620979  	95.932134 
1980.057886  	95.815749 
1981.494793  	95.718492 
1982.931700  	95.546777 
1984.368607  	95.384928 
1985.805514  	95.462083 
1987.242421  	95.513058 
1988.679328  	95.490865 
1990.116235  	95.557713 
1991.553142  	95.579361 
1992.990049  	95.567836 
1994.426956  	95.604494 
1995.863863  	95.551943 
1997.300770  	95.407654 
1998.737677  	95.603626 
2000.174584  	95.646064 
2001.611491  	95.559433 
2003.048398  	95.297656 
2004.485305  	95.054661 
2005.922212  	95.159990 
2007.359119  	95.080257 
2008.796026  	95.001464 
2010.232933  	95.228557 
2011.669840  	95.073530 
2013.106747  	94.776341 
2014.543654  	94.626352 
2015.980562  	94.451966 
2017.417469  	94.619358 
2018.854376  	94.869301 
2020.291283  	94.891111 
2021.728190  	94.790570 
2023.165097  	94.466692 
2024.602004  	94.394208 
2026.038911  	94.655749 
2027.475818  	94.766410 
2028.912725  	95.037524 
2030.349632  	95.196087 
2031.786539  	95.021945 
2033.223446  	94.969160 
2034.660353  	94.938212 
2036.097260  	94.881764 
2037.534167  	94.852717 
2038.971074  	94.747582 
2040.407981  	94.688719 
2041.844888  	94.683267 
2043.281795  	94.703993 
2044.718702  	94.621963 
2046.155609  	94.445437 
2047.592516  	94.674823 
2049.029423  	94.952764 
2050.466330  	94.754625 
2051.903237  	94.673666 
2053.340144  	94.720246 
2054.777051  	94.659485 
2056.213958  	94.785604 
2057.650865  	94.926417 
2059.087772  	94.880056 
2060.524679  	94.800938 
2061.961586  	94.777756 
2063.398493  	94.880309 
2064.835401  	94.973547 
2066.272308  	94.980317 
2067.709215  	95.043128 
2069.146122  	95.014420 
2070.583029  	94.833392 
2072.019936  	94.702937 
2073.456843  	94.745885 
2074.893750  	94.846364 
2076.330657  	94.752618 
2077.767564  	94.667889 
2079.204471  	94.825994 
2080.641378  	94.870960 
2082.078285  	94.789175 
2083.515192  	94.826729 
2084.952099  	94.844718 
2086.389006  	94.876306 
2087.825913  	95.006737 
2089.262820  	95.086113 
2090.699727  	95.058826 
2092.136634  	94.987710 
2093.573541  	95.003912 
2095.010448  	95.029056 
2096.447355  	94.924952 
2097.884262  	94.915693 
2099.321169  	95.004158 
2100.758076  	94.978166 
2102.194983  	94.929581 
2103.631890  	94.911003 
2105.068797  	94.911367 
2106.505704  	94.921278 
2107.942611  	94.889869 
2109.379518  	94.897290 
2110.816425  	94.872597 
2112.253332  	94.795016 
2113.690239  	94.870808 
2115.127147  	94.960862 
2116.564054  	94.953618 
2118.000961  	95.027075 
2119.437868  	95.095277 
2120.874775  	95.056166 
2122.311682  	94.977767 
2123.748589  	94.973130 
2125.185496  	95.150854 
2126.622403  	95.278433 
2128.059310  	95.165906 
2129.496217  	95.099148 
2130.933124  	95.235933 
2132.370031  	95.333098 
2133.806938  	95.174228 
2135.243845  	94.964468 
2136.680752  	94.977106 
2138.117659  	95.072046 
2139.554566  	95.141856 
2140.991473  	95.115151 
2142.428380  	94.950304 
2143.865287  	95.073243 
2145.302194  	95.392428 
2146.739101  	95.391577 
2148.176008  	95.310361 
2149.612915  	95.264356 
2151.049822  	95.275837 
2152.486729  	95.455052 
2153.923636  	95.412167 
2155.360543  	95.415414 
2156.797450  	95.820411 
2158.234357  	95.835755 
2159.671264  	95.483421 
2161.108171  	95.389781 
2162.545078  	95.263677 
2163.981985  	95.036859 
2165.418893  	94.971124 
2166.855800  	95.059545 
2168.292707  	95.141277 
2169.729614  	95.142384 
2171.166521  	95.149418 
2172.603428  	95.112369 
2174.040335  	95.102599 
2175.477242  	95.190753 
2176.914149  	95.249355 
2178.351056  	95.423858 
2179.787963  	95.601009 
2181.224870  	95.491948 
2182.661777  	95.395369 
2184.098684  	95.365274 
2185.535591  	95.201271 
2186.972498  	94.976808 
2188.409405  	94.810606 
2189.846312  	94.786452 
2191.283219  	94.751862 
2192.720126  	94.635734 
2194.157033  	94.690377 
2195.593940  	94.799977 
2197.030847  	94.874833 
2198.467754  	95.028749 
2199.904661  	95.041492 
2201.341568  	95.070186 
2202.778475  	95.213089 
2204.215382  	95.160038 
2205.652289  	95.155695 
2207.089196  	95.186478 
2208.526103  	94.958903 
2209.963010  	94.829601 
2211.399917  	94.899640 
2212.836824  	94.981276 
2214.273732  	95.154792 
2215.710639  	95.222942 
2217.147546  	95.103651 
2218.584453  	95.059704 
2220.021360  	95.156224 
2221.458267  	95.195084 
2222.895174  	95.060057 
2224.332081  	95.034876 
2225.768988  	95.200537 
2227.205895  	95.212020 
2228.642802  	95.081337 
2230.079709  	94.978001 
2231.516616  	95.038014 
2232.953523  	95.323537 
2234.390430  	95.429005 
2235.827337  	95.284366 
2237.264244  	95.229299 
2238.701151  	95.160413 
2240.138058  	95.103142 
2241.574965  	95.183867 
2243.011872  	95.225373 
2244.448779  	95.274698 
2245.885686  	95.309219 
2247.322593  	95.211528 
2248.759500  	95.186379 
2250.196407  	95.269710 
2251.633314  	95.350506 
2253.070221  	95.396852 
2254.507128  	95.377039 
2255.944035  	95.377127 
2257.380942  	95.423330 
2258.817849  	95.525332 
2260.254756  	95.682227 
2261.691663  	95.683267 
2263.128570  	95.589860 
2264.565478  	95.628597 
2266.002385  	95.684515 
2267.439292  	95.663194 
2268.876199  	95.647009 
2270.313106  	95.674599 
2271.750013  	95.671594 
2273.186920  	95.596895 
2274.623827  	95.652119 
2276.060734  	95.826394 
2277.497641  	95.836912 
2278.934548  	95.777325 
2280.371455  	95.805758 
2281.808362  	95.803067 
2283.245269  	95.729506 
2284.682176  	95.669388 
2286.119083  	95.722572 
2287.555990  	95.818193 
2288.992897  	95.765813 
2290.429804  	95.689438 
2291.866711  	95.750627 
2293.303618  	95.781362 
2294.740525  	95.726898 
2296.177432  	95.754729 
2297.614339  	95.844429 
2299.051246  	95.833220 
2300.488153  	95.874081 
2301.925060  	95.873060 
2303.361967  	95.832505 
2304.798874  	95.825013 
2306.235781  	95.844828 
2307.672688  	95.813906 
2309.109595  	95.825016 
2310.546502  	95.869089 
2311.983409  	95.858280 
2313.420317  	95.865950 
2314.857224  	95.859044 
2316.294131  	95.821581 
2317.731038  	95.824002 
2319.167945  	95.794642 
2320.604852  	95.785173 
2322.041759  	95.799252 
2323.478666  	95.704369 
2324.915573  	95.729246 
2326.352480  	95.927352 
2327.789387  	96.025731 
2329.226294  	96.041902 
2330.663201  	96.053834 
2332.100108  	96.004513 
2333.537015  	95.953866 
2334.973922  	95.946865 
2336.410829  	95.973778 
2337.847736  	95.983610 
2339.284643  	95.961281 
2340.721550  	95.977995 
2342.158457  	95.957601 
2343.595364  	95.887808 
2345.032271  	95.858891 
2346.469178  	95.847313 
2347.906085  	95.927618 
2349.342992  	96.056088 
2350.779899  	96.124693 
2352.216806  	96.202278 
2353.653713  	96.326010 
2355.090620  	96.387171 
2356.527527  	96.446574 
2357.964434  	96.465230 
2359.401341  	96.422856 
2360.838248  	96.466511 
2362.275155  	96.507577 
2363.712063  	96.508791 
2365.148970  	96.531817 
2366.585877  	96.571457 
2368.022784  	96.645315 
2369.459691  	96.667744 
2370.896598  	96.644651 
2372.333505  	96.604616 
2373.770412  	96.531946 
2375.207319  	96.545239 
2376.644226  	96.577673 
2378.081133  	96.543626 
2379.518040  	96.582777 
2380.954947  	96.632736 
2382.391854  	96.606320 
2383.828761  	96.610380 
2385.265668  	96.636031 
2386.702575  	96.651695 
2388.139482  	96.676591 
2389.576389  	96.658276 
2391.013296  	96.625535 
2392.450203  	96.647327 
2393.887110  	96.651243 
2395.324017  	96.593574 
2396.760924  	96.548100 
2398.197831  	96.549657 
2399.634738  	96.546431 
2401.071645  	96.519996 
2402.508552  	96.503825 
2403.945459  	96.504618 
2405.382366  	96.528615 
2406.819273  	96.546709 
2408.256180  	96.521684 
2409.693087  	96.501124 
2411.129994  	96.475546 
2412.566901  	96.437243 
2414.003809  	96.450300 
2415.440716  	96.472831 
2416.877623  	96.504972 
2418.314530  	96.578067 
2419.751437  	96.588531 
2421.188344  	96.576624 
2422.625251  	96.625457 
2424.062158  	96.671628 
2425.499065  	96.716479 
2426.935972  	96.722754 
2428.372879  	96.675921 
2429.809786  	96.682526 
2431.246693  	96.694477 
2432.683600  	96.683825 
2434.120507  	96.720845 
2435.557414  	96.753512 
2436.994321  	96.785663 
2438.431228  	96.824615 
2439.868135  	96.804773 
2441.305042  	96.780193 
2442.741949  	96.792567 
2444.178856  	96.822531 
2445.615763  	96.847984 
2447.052670  	96.824353 
2448.489577  	96.803973 
2449.926484  	96.827358 
2451.363391  	96.852128 
2452.800298  	96.850691 
2454.237205  	96.790592 
2455.674112  	96.750164 
2457.111019  	96.783664 
2458.547926  	96.785927 
2459.984833  	96.790038 
2461.421740  	96.838034 
2462.858648  	96.845404 
2464.295555  	96.841753 
2465.732462  	96.831144 
2467.169369  	96.793425 
2468.606276  	96.799276 
2470.043183  	96.827815 
2471.480090  	96.845715 
2472.916997  	96.850759 
2474.353904  	96.832888 
2475.790811  	96.848195 
2477.227718  	96.868080 
2478.664625  	96.866292 
2480.101532  	96.895431 
2481.538439  	96.892507 
2482.975346  	96.870882 
2484.412253  	96.900168 
2485.849160  	96.908049 
2487.286067  	96.899543 
2488.722974  	96.904510 
2490.159881  	96.901734 
2491.596788  	96.928185 
2493.033695  	96.955530 
2494.470602  	96.960249 
2495.907509  	96.955503 
2497.344416  	96.930789 
2498.781323  	96.950201 
2500.218230  	96.975081 
2501.655137  	96.946002 
2503.092044  	96.953945 
2504.528951  	96.945805 
2505.965858  	96.910332 
2507.402765  	96.958885 
2508.839672  	96.959280 
2510.276579  	96.897281 
2511.713486  	96.958427 
2513.150394  	97.048315 
2514.587301  	97.033727 
2516.024208  	96.979337 
2517.461115  	96.950685 
2518.898022  	96.948665 
2520.334929  	96.943984 
2521.771836  	96.963327 
2523.208743  	97.005521 
2524.645650  	96.984435 
2526.082557  	96.943269 
2527.519464  	96.964727 
2528.956371  	96.998641 
2530.393278  	96.993619 
2531.830185  	96.962372 
2533.267092  	96.949728 
2534.703999  	96.967574 
2536.140906  	96.992551 
2537.577813  	97.013628 
2539.014720  	96.994450 
2540.451627  	96.963989 
2541.888534  	96.976197 
2543.325441  	96.970587 
2544.762348  	96.956598 
2546.199255  	96.959523 
2547.636162  	96.899813 
2549.073069  	96.858473 
2550.509976  	96.927920 
2551.946883  	96.979842 
2553.383790  	96.963926 
2554.820697  	96.953195 
2556.257604  	96.959555 
2557.694511  	96.963768 
2559.131418  	96.938659 
2560.568325  	96.892039 
2562.005232  	96.888307 
2563.442140  	96.914374 
2564.879047  	96.891433 
2566.315954  	96.855976 
2567.752861  	96.878217 
2569.189768  	96.904999 
2570.626675  	96.919573 
2572.063582  	96.941743 
2573.500489  	96.903127 
2574.937396  	96.851757 
2576.374303  	96.870751 
2577.811210  	96.880761 
2579.248117  	96.867440 
2580.685024  	96.853454 
2582.121931  	96.801134 
2583.558838  	96.770062 
2584.995745  	96.795660 
2586.432652  	96.843292 
2587.869559  	96.898436 
2589.306466  	96.907575 
2590.743373  	96.887778 
2592.180280  	96.880357 
2593.617187  	96.841996 
2595.054094  	96.806668 
2596.491001  	96.806169 
2597.927908  	96.803263 
2599.364815  	96.798983 
2600.801722  	96.775984 
2602.238629  	96.761277 
2603.675536  	96.796742 
2605.112443  	96.814849 
2606.549350  	96.799980 
2607.986257  	96.784007 
2609.423164  	96.777257 
2610.860071  	96.802162 
2612.296979  	96.791360 
2613.733886  	96.738709 
2615.170793  	96.744138 
2616.607700  	96.759170 
2618.044607  	96.746345 
2619.481514  	96.767549 
2620.918421  	96.790377 
2622.355328  	96.793190 
2623.792235  	96.795758 
2625.229142  	96.781821 
2626.666049  	96.763095 
2628.102956  	96.755098 
2629.539863  	96.773268 
2630.976770  	96.819710 
2632.413677  	96.839710 
2633.850584  	96.829963 
2635.287491  	96.838838 
2636.724398  	96.861817 
2638.161305  	96.855833 
2639.598212  	96.809411 
2641.035119  	96.781102 
2642.472026  	96.803340 
2643.908933  	96.835098 
2645.345840  	96.853255 
2646.782747  	96.846315 
2648.219654  	96.825361 
2649.656561  	96.834636 
2651.093468  	96.857555 
2652.530375  	96.857777 
2653.967282  	96.844047 
2655.404189  	96.840129 
2656.841096  	96.859164 
2658.278003  	96.869005 
2659.714910  	96.861252 
2661.151817  	96.866415 
2662.588725  	96.863635 
2664.025632  	96.861269 
2665.462539  	96.887008 
2666.899446  	96.902436 
2668.336353  	96.904019 
2669.773260  	96.898982 
2671.210167  	96.882649 
2672.647074  	96.896384 
2674.083981  	96.905086 
2675.520888  	96.869027 
2676.957795  	96.863900 
2678.394702  	96.897488 
2679.831609  	96.914319 
2681.268516  	96.910578 
2682.705423  	96.885021 
2684.142330  	96.862653 
2685.579237  	96.873142 
2687.016144  	96.892715 
2688.453051  	96.902292 
2689.889958  	96.906630 
2691.326865  	96.913029 
2692.763772  	96.913585 
2694.200679  	96.901918 
2695.637586  	96.894712 
2697.074493  	96.884222 
2698.511400  	96.874153 
2699.948307  	96.887849 
2701.385214  	96.895578 
2702.822121  	96.891346 
2704.259028  	96.898467 
2705.695935  	96.903299 
2707.132842  	96.906676 
2708.569749  	96.892814 
2710.006656  	96.859602 
2711.443564  	96.861613 
2712.880471  	96.877760 
2714.317378  	96.877782 
2715.754285  	96.891833 
2717.191192  	96.886592 
2718.628099  	96.855288 
2720.065006  	96.851765 
2721.501913  	96.856037 
2722.938820  	96.838336 
2724.375727  	96.813987 
2725.812634  	96.801254 
2727.249541  	96.810558 
2728.686448  	96.824470 
2730.123355  	96.830972 
2731.560262  	96.828178 
2732.997169  	96.804503 
2734.434076  	96.779593 
2735.870983  	96.769407 
2737.307890  	96.760042 
2738.744797  	96.749768 
2740.181704  	96.744784 
2741.618611  	96.749014 
2743.055518  	96.748120 
2744.492425  	96.731253 
2745.929332  	96.720201 
2747.366239  	96.716845 
2748.803146  	96.718659 
2750.240053  	96.724762 
2751.676960  	96.702444 
2753.113867  	96.668254 
2754.550774  	96.659563 
2755.987681  	96.663038 
2757.424588  	96.668535 
2758.861495  	96.649074 
2760.298402  	96.606692 
2761.735310  	96.604964 
2763.172217  	96.620461 
2764.609124  	96.605486 
2766.046031  	96.591234 
2767.482938  	96.577319 
2768.919845  	96.556172 
2770.356752  	96.548080 
2771.793659  	96.539771 
2773.230566  	96.532441 
2774.667473  	96.539269 
2776.104380  	96.536066 
2777.541287  	96.511060 
2778.978194  	96.489605 
2780.415101  	96.482963 
2781.852008  	96.467563 
2783.288915  	96.439606 
2784.725822  	96.416261 
2786.162729  	96.403615 
2787.599636  	96.417298 
2789.036543  	96.430103 
2790.473450  	96.403646 
2791.910357  	96.384423 
2793.347264  	96.377447 
2794.784171  	96.345252 
2796.221078  	96.323029 
2797.657985  	96.312935 
2799.094892  	96.294618 
2800.531799  	96.278313 
2801.968706  	96.245800 
2803.405613  	96.223501 
2804.842520  	96.229098 
2806.279427  	96.214356 
2807.716334  	96.202967 
2809.153241  	96.208065 
2810.590148  	96.183562 
2812.027056  	96.145886 
2813.463963  	96.114279 
2814.900870  	96.101726 
2816.337777  	96.121480 
2817.774684  	96.122450 
2819.211591  	96.090954 
2820.648498  	96.059701 
2822.085405  	96.034778 
2823.522312  	96.022504 
2824.959219  	96.007734 
2826.396126  	95.991646 
2827.833033  	95.984881 
2829.269940  	95.945714 
2830.706847  	95.895005 
2832.143754  	95.879797 
2833.580661  	95.870478 
2835.017568  	95.863098 
2836.454475  	95.853270 
2837.891382  	95.814176 
2839.328289  	95.779209 
2840.765196  	95.771324 
2842.202103  	95.765937 
2843.639010  	95.732258 
2845.075917  	95.681393 
2846.512824  	95.665657 
2847.949731  	95.649472 
2849.386638  	95.600799 
2850.823545  	95.592932 
2852.260452  	95.599676 
2853.697359  	95.561162 
2855.134266  	95.528155 
2856.571173  	95.505682 
2858.008080  	95.477932 
2859.444987  	95.466643 
2860.881895  	95.448246 
2862.318802  	95.412563 
2863.755709  	95.380309 
2865.192616  	95.357923 
2866.629523  	95.344636 
2868.066430  	95.324053 
2869.503337  	95.296683 
2870.940244  	95.268157 
2872.377151  	95.228242 
2873.814058  	95.186624 
2875.250965  	95.146479 
2876.687872  	95.123168 
2878.124779  	95.123146 
2879.561686  	95.087724 
2880.998593  	95.029212 
2882.435500  	95.006522 
2883.872407  	94.983946 
2885.309314  	94.944487 
2886.746221  	94.908168 
2888.183128  	94.870461 
2889.620035  	94.845917 
2891.056942  	94.810963 
2892.493849  	94.748104 
2893.930756  	94.708591 
2895.367663  	94.674080 
2896.804570  	94.606722 
2898.241477  	94.561669 
2899.678384  	94.551247 
2901.115291  	94.513245 
2902.552198  	94.445583 
2903.989105  	94.399908 
2905.426012  	94.374759 
2906.862919  	94.336875 
2908.299826  	94.293647 
2909.736733  	94.252631 
2911.173641  	94.203739 
2912.610548  	94.142454 
2914.047455  	94.078523 
2915.484362  	94.051332 
2916.921269  	94.036956 
2918.358176  	93.969520 
2919.795083  	93.901237 
2921.231990  	93.873505 
2922.668897  	93.832862 
2924.105804  	93.775317 
2925.542711  	93.710196 
2926.979618  	93.642195 
2928.416525  	93.595714 
2929.853432  	93.547045 
2931.290339  	93.493206 
2932.727246  	93.449440 
2934.164153  	93.391425 
2935.601060  	93.328660 
2937.037967  	93.266488 
2938.474874  	93.206815 
2939.911781  	93.175432 
2941.348688  	93.125669 
2942.785595  	93.036913 
2944.222502  	92.970510 
2945.659409  	92.925499 
2947.096316  	92.874068 
2948.533223  	92.817163 
2949.970130  	92.750127 
2951.407037  	92.672650 
2952.843944  	92.586283 
2954.280851  	92.511871 
2955.717758  	92.459413 
2957.154665  	92.404664 
2958.591572  	92.339994 
2960.028479  	92.254633 
2961.465387  	92.176137 
2962.902294  	92.141135 
2964.339201  	92.083252 
2965.776108  	91.988723 
2967.213015  	91.909958 
2968.649922  	91.829567 
2970.086829  	91.760881 
2971.523736  	91.700115 
2972.960643  	91.607934 
2974.397550  	91.524789 
2975.834457  	91.444826 
2977.271364  	91.360675 
2978.708271  	91.319641 
2980.145178  	91.266836 
2981.582085  	91.179872 
2983.018992  	91.089132 
2984.455899  	90.957128 
2985.892806  	90.822021 
2987.329713  	90.719510 
2988.766620  	90.612847 
2990.203527  	90.531844 
2991.640434  	90.470037 
2993.077341  	90.374779 
2994.514248  	90.254564 
2995.951155  	90.138502 
2997.388062  	90.050817 
2998.824969  	89.962215 
3000.261876  	89.850541 
3001.698783  	89.749906 
3003.135690  	89.639604 
3004.572597  	89.514464 
3006.009504  	89.390606 
3007.446411  	89.258784 
3008.883318  	89.174375 
3010.320226  	89.109523 
3011.757133  	88.989001 
3013.194040  	88.858633 
3014.630947  	88.708633 
3016.067854  	88.555982 
3017.504761  	88.468489 
3018.941668  	88.360007 
3020.378575  	88.221752 
3021.815482  	88.116499 
3023.252389  	87.995176 
3024.689296  	87.871147 
3026.126203  	87.754953 
3027.563110  	87.624179 
3029.000017  	87.508005 
3030.436924  	87.368239 
3031.873831  	87.210424 
3033.310738  	87.075497 
3034.747645  	86.934323 
3036.184552  	86.818707 
3037.621459  	86.693218 
3039.058366  	86.513588 
3040.495273  	86.370065 
3041.932180  	86.241037 
3043.369087  	86.097946 
3044.805994  	85.983391 
3046.242901  	85.838652 
3047.679808  	85.681310 
3049.116715  	85.547889 
3050.553622  	85.389692 
3051.990529  	85.227083 
3053.427436  	85.056340 
3054.864343  	84.893914 
3056.301250  	84.775078 
3057.738157  	84.623836 
3059.175064  	84.454186 
3060.611972  	84.291337 
3062.048879  	84.090689 
3063.485786  	83.918011 
3064.922693  	83.772212 
3066.359600  	83.604800 
3067.796507  	83.439757 
3069.233414  	83.250304 
3070.670321  	83.072799 
3072.107228  	82.924232 
3073.544135  	82.737649 
3074.981042  	82.550816 
3076.417949  	82.369739 
3077.854856  	82.181185 
3079.291763  	82.003944 
3080.728670  	81.795415 
3082.165577  	81.618735 
3083.602484  	81.474272 
3085.039391  	81.267345 
3086.476298  	81.078263 
3087.913205  	80.890806 
3089.350112  	80.658782 
3090.787019  	80.477630 
3092.223926  	80.294563 
3093.660833  	80.094065 
3095.097740  	79.914413 
3096.534647  	79.693628 
3097.971554  	79.496715 
3099.408461  	79.317915 
3100.845368  	79.093040 
3102.282275  	78.887020 
3103.719182  	78.673346 
3105.156089  	78.483990 
3106.592996  	78.330625 
3108.029903  	78.092628 
3109.466811  	77.864364 
3110.903718  	77.676359 
3112.340625  	77.453845 
3113.777532  	77.263408 
3115.214439  	77.029743 
3116.651346  	76.771685 
3118.088253  	76.580412 
3119.525160  	76.343320 
3120.962067  	76.147701 
3122.398974  	76.001631 
3123.835881  	75.764066 
3125.272788  	75.569461 
3126.709695  	75.379363 
3128.146602  	75.129872 
3129.583509  	74.955367 
3131.020416  	74.746698 
3132.457323  	74.496503 
3133.894230  	74.288626 
3135.331137  	74.045323 
3136.768044  	73.840157 
3138.204951  	73.636128 
3139.641858  	73.380380 
3141.078765  	73.193676 
3142.515672  	72.983569 
3143.952579  	72.763186 
3145.389486  	72.609382 
3146.826393  	72.381587 
3148.263300  	72.137823 
3149.700207  	71.919814 
3151.137114  	71.685074 
3152.574021  	71.509725 
3154.010928  	71.304380 
3155.447835  	71.089041 
3156.884742  	70.934818 
3158.321649  	70.717948 
3159.758557  	70.519242 
3161.195464  	70.352498 
3162.632371  	70.130661 
3164.069278  	69.952623 
3165.506185  	69.745452 
3166.943092  	69.505733 
3168.379999  	69.333413 
3169.816906  	69.126585 
3171.253813  	68.935365 
3172.690720  	68.770746 
3174.127627  	68.560895 
3175.564534  	68.403265 
3177.001441  	68.235367 
3178.438348  	68.048194 
3179.875255  	67.891901 
3181.312162  	67.667127 
3182.749069  	67.484358 
3184.185976  	67.332622 
3185.622883  	67.114620 
3187.059790  	66.975261 
3188.496697  	66.844710 
3189.933604  	66.709739 
3191.370511  	66.619750 
3192.807418  	66.409324 
3194.244325  	66.224512 
3195.681232  	66.114395 
3197.118139  	65.935598 
3198.555046  	65.840784 
3199.991953  	65.726639 
3201.428860  	65.531693 
3202.865767  	65.431061 
3204.302674  	65.292957 
3205.739581  	65.177026 
3207.176488  	65.131523 
3208.613395  	64.964073 
3210.050303  	64.819005 
3211.487210  	64.712859 
3212.924117  	64.575083 
3214.361024  	64.520923 
3215.797931  	64.425406 
3217.234838  	64.301178 
3218.671745  	64.197193 
3220.108652  	64.039292 
3221.545559  	63.989439 
3222.982466  	63.945555 
3224.419373  	63.830210 
3225.856280  	63.801900 
3227.293187  	63.695318 
3228.730094  	63.586740 
3230.167001  	63.582625 
3231.603908  	63.472096 
3233.040815  	63.409150 
3234.477722  	63.387052 
3235.914629  	63.287213 
3237.351536  	63.291973 
3238.788443  	63.246969 
3240.225350  	63.140049 
3241.662257  	63.124824 
3243.099164  	63.049209 
3244.536071  	63.021916 
3245.972978  	63.021140 
3247.409885  	62.918463 
3248.846792  	62.917653 
3250.283699  	62.891973 
3251.720606  	62.819809 
3253.157513  	62.848191 
3254.594420  	62.778079 
3256.031327  	62.735973 
3257.468234  	62.775962 
3258.905142  	62.709318 
3260.342049  	62.713699 
3261.778956  	62.706970 
3263.215863  	62.646621 
3264.652770  	62.732888 
3266.089677  	62.730268 
3267.526584  	62.639959 
3268.963491  	62.644307 
3270.400398  	62.627374 
3271.837305  	62.631694 
3273.274212  	62.611731 
3274.711119  	62.543821 
3276.148026  	62.544412 
3277.584933  	62.511441 
3279.021840  	62.526099 
3280.458747  	62.563332 
3281.895654  	62.479123 
3283.332561  	62.499480 
3284.769468  	62.536470 
3286.206375  	62.475590 
3287.643282  	62.513624 
3289.080189  	62.513638 
3290.517096  	62.486191 
3291.954003  	62.500227 
3293.390910  	62.410605 
3294.827817  	62.395945 
3296.264724  	62.427667 
3297.701631  	62.390815 
3299.138538  	62.438080 
3300.575445  	62.432946 
3302.012352  	62.404646 
3303.449259  	62.446834 
3304.886166  	62.381539 
3306.323073  	62.359961 
3307.759980  	62.393966 
3309.196888  	62.359617 
3310.633795  	62.394795 
3312.070702  	62.378396 
3313.507609  	62.346551 
3314.944516  	62.417846 
3316.381423  	62.396072 
3317.818330  	62.380783 
3319.255237  	62.377208 
3320.692144  	62.299695 
3322.129051  	62.342775 
3323.565958  	62.359059 
3325.002865  	62.318447 
3326.439772  	62.373112 
3327.876679  	62.333077 
3329.313586  	62.292733 
3330.750493  	62.316101 
3332.187400  	62.280260 
3333.624307  	62.335520 
3335.061214  	62.375422 
3336.498121  	62.345865 
3337.935028  	62.378154 
3339.371935  	62.326849 
3340.808842  	62.292485 
3342.245749  	62.321674 
3343.682656  	62.299058 
3345.119563  	62.389513 
3346.556470  	62.473825 
3347.993377  	62.471045 
3349.430284  	62.507819 
3350.867191  	62.446248 
3352.304098  	62.412203 
3353.741005  	62.482025 
3355.177912  	62.512601 
3356.614819  	62.597398 
3358.051726  	62.580083 
3359.488634  	62.500295 
3360.925541  	62.590496 
3362.362448  	62.599721 
3363.799355  	62.631439 
3365.236262  	62.780252 
3366.673169  	62.745889 
3368.110076  	62.771131 
3369.546983  	62.923267 
3370.983890  	62.966080 
3372.420797  	63.018694 
3373.857704  	63.043915 
3375.294611  	63.072711 
3376.731518  	63.175584 
3378.168425  	63.202658 
3379.605332  	63.257564 
3381.042239  	63.339195 
3382.479146  	63.400638 
3383.916053  	63.513030 
3385.352960  	63.522591 
3386.789867  	63.582701 
3388.226774  	63.761222 
3389.663681  	63.805980 
3391.100588  	63.893505 
3392.537495  	63.997471 
3393.974402  	64.014212 
3395.411309  	64.180822 
3396.848216  	64.306649 
3398.285123  	64.338803 
3399.722030  	64.428912 
3401.158937  	64.470492 
3402.595844  	64.611077 
3404.032751  	64.762674 
3405.469658  	64.815236 
3406.906565  	65.020930 
3408.343473  	65.147748 
3409.780380  	65.181393 
3411.217287  	65.362735 
3412.654194  	65.436085 
3414.091101  	65.531466 
3415.528008  	65.753798 
3416.964915  	65.838331 
3418.401822  	65.943681 
3419.838729  	66.074991 
3421.275636  	66.176167 
3422.712543  	66.364925 
3424.149450  	66.474411 
3425.586357  	66.620780 
3427.023264  	66.832138 
3428.460171  	66.898603 
3429.897078  	67.044723 
3431.333985  	67.235142 
3432.770892  	67.319659 
3434.207799  	67.470561 
3435.644706  	67.595520 
3437.081613  	67.711758 
3438.518520  	67.889548 
3439.955427  	68.025162 
3441.392334  	68.228485 
3442.829241  	68.403908 
3444.266148  	68.498759 
3445.703055  	68.688437 
3447.139962  	68.827952 
3448.576869  	68.962047 
3450.013776  	69.154467 
3451.450683  	69.247854 
3452.887590  	69.398487 
3454.324497  	69.578131 
3455.761404  	69.717378 
3457.198311  	69.943057 
3458.635219  	70.079823 
3460.072126  	70.190144 
3461.509033  	70.392386 
3462.945940  	70.492079 
3464.382847  	70.602384 
3465.819754  	70.746585 
3467.256661  	70.868377 
3468.693568  	71.082575 
3470.130475  	71.225246 
3471.567382  	71.374654 
3473.004289  	71.634923 
3474.441196  	71.764852 
3475.878103  	71.892790 
3477.315010  	72.067432 
3478.751917  	72.175945 
3480.188824  	72.376102 
3481.625731  	72.549782 
3483.062638  	72.669381 
3484.499545  	72.890073 
3485.936452  	73.044341 
3487.373359  	73.173519 
3488.810266  	73.335003 
3490.247173  	73.450865 
3491.684080  	73.606748 
3493.120987  	73.760891 
3494.557894  	73.953860 
3495.994801  	74.174879 
3497.431708  	74.255372 
3498.868615  	74.395393 
3500.305522  	74.580553 
3501.742429  	74.656405 
3503.179336  	74.817446 
3504.616243  	74.974155 
3506.053150  	75.116500 
3507.490058  	75.377889 
3508.926965  	75.540516 
3510.363872  	75.688162 
3511.800779  	75.933907 
3513.237686  	76.088660 
3514.674593  	76.222751 
3516.111500  	76.343846 
3517.548407  	76.466233 
3518.985314  	76.661982 
3520.422221  	76.826611 
3521.859128  	77.027249 
3523.296035  	77.183944 
3524.732942  	77.215153 
3526.169849  	77.415035 
3527.606756  	77.596219 
3529.043663  	77.670101 
3530.480570  	77.904690 
3531.917477  	78.096141 
3533.354384  	78.254597 
3534.791291  	78.467229 
3536.228198  	78.575766 
3537.665105  	78.753679 
3539.102012  	78.970007 
3540.538919  	79.049969 
3541.975826  	79.172633 
3543.412733  	79.337861 
3544.849640  	79.558135 
3546.286547  	79.803261 
3547.723454  	79.882430 
3549.160361  	80.019309 
3550.597268  	80.217899 
3552.034175  	80.334685 
3553.471082  	80.518457 
3554.907989  	80.725266 
3556.344896  	80.894249 
3557.781804  	81.083131 
3559.218711  	81.202004 
3560.655618  	81.310484 
3562.092525  	81.510649 
3563.529432  	81.745914 
3564.966339  	81.986387 
3566.403246  	82.113363 
3567.840153  	82.099269 
3569.277060  	82.171572 
3570.713967  	82.337779 
3572.150874  	82.579563 
3573.587781  	82.780051 
3575.024688  	82.855691 
3576.461595  	82.977385 
3577.898502  	83.160263 
3579.335409  	83.398487 
3580.772316  	83.646851 
3582.209223  	83.738296 
3583.646130  	83.797640 
3585.083037  	83.927160 
3586.519944  	84.084366 
3587.956851  	84.228045 
3589.393758  	84.251128 
3590.830665  	84.403515 
3592.267572  	84.673619 
3593.704479  	84.788235 
3595.141386  	84.867033 
3596.578293  	85.052976 
3598.015200  	85.200144 
3599.452107  	85.352299 
3600.889014  	85.397461 
3602.325921  	85.389973 
3603.762828  	85.602558 
3605.199735  	85.871244 
3606.636642  	86.083516 
3608.073550  	86.187688 
3609.510457  	86.183494 
3610.947364  	86.386820 
3612.384271  	86.656812 
3613.821178  	86.831881 
3615.258085  	87.000707 
3616.694992  	87.101208 
3618.131899  	87.214121 
3619.568806  	87.393966 
3621.005713  	87.442981 
3622.442620  	87.474177 
3623.879527  	87.573675 
3625.316434  	87.770803 
3626.753341  	88.106166 
3628.190248  	88.348134 
3629.627155  	88.245509 
3631.064062  	88.310480 
3632.500969  	88.598523 
3633.937876  	88.882824 
3635.374783  	89.001250 
3636.811690  	89.141222 
3638.248597  	89.379195 
3639.685504  	89.484811 
3641.122411  	89.646172 
3642.559318  	89.853230 
3643.996225  	89.984834 
3645.433132  	90.221876 
3646.870039  	90.532252 
3648.306946  	90.631526 
3649.743853  	90.645617 
3651.180760  	90.688189 
3652.617667  	90.834775 
3654.054574  	91.133557 
3655.491481  	91.397724 
3656.928389  	91.500142 
3658.365296  	91.584232 
3659.802203  	91.806318 
3661.239110  	92.026542 
3662.676017  	92.139057 
3664.112924  	92.255858 
3665.549831  	92.492690 
3666.986738  	92.742795 
3668.423645  	93.012129 
3669.860552  	93.234321 
3671.297459  	93.242742 
3672.734366  	93.405274 
3674.171273  	93.742927 
3675.608180  	93.990706 
3677.045087  	93.919594 
3678.481994  	94.070287 
3679.918901  	94.266779 
3681.355808  	94.397675 
3682.792715  	94.516897 
3684.229622  	94.610615 
3685.666529  	94.746348 
3687.103436  	94.968180 
3688.540343  	95.135480 
3689.977250  	95.123052 
3691.414157  	95.179806 
3692.851064  	95.251203 
3694.287971  	95.398086 
3695.724878  	95.576674 
3697.161785  	95.601791 
3698.598692  	95.621285 
3700.035599  	95.739809 
3701.472506  	95.803626 
3702.909413  	95.798672 
3704.346320  	95.806594 
3705.783227  	95.781037 
3707.220135  	95.827642 
3708.657042  	95.943205 
3710.093949  	96.057643 
3711.530856  	96.101103 
3712.967763  	96.022430 
3714.404670  	96.027325 
3715.841577  	96.070211 
3717.278484  	96.054521 
3718.715391  	96.032455 
3720.152298  	96.049563 
3721.589205  	96.072689 
3723.026112  	96.047453 
3724.463019  	95.999211 
3725.899926  	96.021608 
3727.336833  	96.060281 
3728.773740  	96.157904 
3730.210647  	96.379146 
3731.647554  	96.451386 
3733.084461  	96.262269 
3734.521368  	96.262518 
3735.958275  	96.431497 
3737.395182  	96.483552 
3738.832089  	96.494802 
3740.268996  	96.458364 
3741.705903  	96.474648 
3743.142810  	96.620062 
3744.579717  	96.668672 
3746.016624  	96.551878 
3747.453531  	96.742402 
3748.890438  	96.950863 
3750.327345  	96.979240 
3751.764252  	96.878308 
3753.201159  	96.754528 
3754.638066  	96.707867 
3756.074973  	96.798010 
3757.511881  	96.811587 
3758.948788  	96.773006 
3760.385695  	96.910195 
3761.822602  	96.974721 
3763.259509  	96.963957 
3764.696416  	97.011728 
3766.133323  	96.925309 
3767.570230  	96.802050 
3769.007137  	96.903663 
3770.444044  	96.958964 
3771.880951  	96.834853 
3773.317858  	96.751209 
3774.754765  	96.704144 
3776.191672  	96.708930 
3777.628579  	96.762774 
3779.065486  	96.807080 
3780.502393  	96.734903 
3781.939300  	96.652237 
3783.376207  	96.668820 
3784.813114  	96.667282 
3786.250021  	96.611041 
3787.686928  	96.635749 
3789.123835  	96.629530 
3790.560742  	96.571056 
3791.997649  	96.521266 
3793.434556  	96.591942 
3794.871463  	96.828819 
3796.308370  	97.010672 
3797.745277  	96.879321 
3799.182184  	96.925941 
3800.619091  	97.129564 
3802.055998  	96.827962 
3803.492905  	96.482062 
3804.929812  	96.784694 
3806.366720  	97.042238 
3807.803627  	96.788054 
3809.240534  	96.566176 
3810.677441  	96.747633 
3812.114348  	96.911638 
3813.551255  	97.074709 
3814.988162  	97.263822 
3816.425069  	97.213759 
3817.861976  	96.963588 
3819.298883  	97.097566 
3820.735790  	97.217317 
3822.172697  	96.927534 
3823.609604  	96.896527 
3825.046511  	97.077947 
3826.483418  	97.076196 
3827.920325  	96.904673 
3829.357232  	96.977726 
3830.794139  	97.166518 
3832.231046  	97.200612 
3833.667953  	97.184231 
3835.104860  	97.167471 
3836.541767  	97.043754 
3837.978674  	97.001058 
3839.415581  	97.088628 
3840.852488  	96.987771 
3842.289395  	96.891267 
3843.726302  	96.935167 
3845.163209  	96.953806 
3846.600116  	96.916387 
3848.037023  	97.015933 
3849.473930  	97.234264 
3850.910837  	97.320020 
3852.347744  	97.284261 
3853.784651  	97.016092 
3855.221558  	96.708882 
3856.658466  	96.760761 
3858.095373  	96.813225 
3859.532280  	96.895272 
3860.969187  	97.006695 
3862.406094  	97.011182 
3863.843001  	97.094439 
3865.279908  	97.200423 
3866.716815  	97.023836 
3868.153722  	97.085301 
3869.590629  	97.295306 
3871.027536  	96.934109 
3872.464443  	96.788078 
3873.901350  	96.951339 
3875.338257  	96.858362 
3876.775164  	96.824257 
3878.212071  	97.016709 
3879.648978  	97.261448 
3881.085885  	97.097721 
3882.522792  	96.830423 
3883.959699  	97.031630 
3885.396606  	97.188401 
3886.833513  	96.756689 
3888.270420  	96.753497 
3889.707327  	97.039052 
3891.144234  	96.994319 
3892.581141  	96.786655 
3894.018048  	96.826684 
3895.454955  	96.895669 
3896.891862  	97.018723 
3898.328769  	97.163670 
3899.765676  	97.158133 
3901.202583  	97.039709 
3902.639490  	97.053484 
3904.076397  	97.052515 
3905.513305  	96.755890 
3906.950212  	96.582543 
3908.387119  	96.692557 
3909.824026  	96.802603 
3911.260933  	96.846482 
3912.697840  	96.886904 
3914.134747  	96.953025 
3915.571654  	97.020276 
3917.008561  	97.028587 
3918.445468  	96.986541 
3919.882375  	96.927430 
3921.319282  	96.850093 
3922.756189  	96.874011 
3924.193096  	96.917696 
3925.630003  	96.866485 
3927.066910  	96.879414 
3928.503817  	96.941879 
3929.940724  	96.929898 
3931.377631  	96.912580 
3932.814538  	96.903677 
3934.251445  	96.840035 
3935.688352  	96.795426 
3937.125259  	96.815839 
3938.562166  	96.830071 
3939.999073  	96.828778 
3941.435980  	96.875730 
3942.872887  	96.945394 
3944.309794  	96.900523 
3945.746701  	96.853122 
3947.183608  	96.878697 
3948.620515  	96.891297 
3950.057422  	96.892162 
3951.494329  	96.906266 
3952.931236  	96.917586 
3954.368143  	96.936189 
3955.805051  	96.907607 
3957.241958  	96.840477 
3958.678865  	96.914959 
3960.115772  	96.974642 
3961.552679  	96.935414 
3962.989586  	96.877429 
3964.426493  	96.883936 
3965.863400  	96.968822 
3967.300307  	97.011935 
3968.737214  	96.996444 
3970.174121  	96.982486 
3971.611028  	96.948921 
3973.047935  	96.943867 
3974.484842  	96.933571 
3975.921749  	96.858496 
3977.358656  	96.856700 
3978.795563  	96.933526 
3980.232470  	96.968905 
3981.669377  	96.956893 
3983.106284  	96.940761 
3984.543191  	96.969764 
3985.980098  	96.991128 
3987.417005  	96.962517 
3988.853912  	96.972031 
3990.290819  	96.985028 
3991.727726  	96.949760 
3993.164633  	96.946779 
3994.601540  	96.966840 
3996.038447  	96.959923 
3997.475354  	96.925052 
3998.912261  	96.898980 
4000.349168  	96.922036 