##TITLE=No Description
##DATA TYPE=INFRARED SPECTRUM
##XUNITS=1/CM
##YUNITS=%T
399.460154  	42.282357 
400.897061  	41.153005 
402.333968  	41.821459 
403.770875  	41.121555 
405.207782  	40.682862 
406.644689  	40.262129 
408.081596  	38.886224 
409.518503  	39.532931 
410.955410  	39.639534 
412.392317  	39.238702 
413.829224  	40.880959 
415.266131  	40.434962 
416.703038  	40.049834 
418.139945  	42.440291 
419.576852  	40.266942 
421.013759  	38.592823 
422.450666  	38.974172 
423.887574  	39.076055 
425.324481  	40.041957 
426.761388  	40.374889 
428.198295  	40.305687 
429.635202  	40.627134 
431.072109  	40.250005 
432.509016  	40.091290 
433.945923  	39.720543 
435.382830  	39.154946 
436.819737  	40.004610 
438.256644  	40.208045 
439.693551  	40.048327 
441.130458  	40.533990 
442.567365  	40.008891 
444.004272  	39.972804 
445.441179  	40.242115 
446.878086  	39.536598 
448.314993  	39.453570 
449.751900  	39.509994 
451.188807  	39.771825 
452.625714  	40.515336 
454.062621  	40.123218 
455.499528  	39.949268 
456.936435  	39.912581 
458.373342  	39.064464 
459.810249  	39.306875 
461.247156  	39.730371 
462.684063  	40.152127 
464.120970  	40.457998 
465.557877  	39.597665 
466.994784  	39.554383 
468.431691  	39.988295 
469.868598  	39.416207 
471.305505  	39.898979 
472.742413  	40.398286 
474.179320  	39.867551 
475.616227  	40.094719 
477.053134  	39.838555 
478.490041  	39.616051 
479.926948  	40.140712 
481.363855  	39.843428 
482.800762  	39.459299 
484.237669  	39.420888 
485.674576  	39.127495 
487.111483  	39.391398 
488.548390  	39.801118 
489.985297  	40.182827 
491.422204  	40.449824 
492.859111  	39.879624 
494.296018  	39.542365 
495.732925  	39.628121 
497.169832  	39.399001 
498.606739  	39.572332 
500.043646  	39.824066 
501.480553  	40.199561 
502.917460  	41.030169 
504.354367  	40.754377 
505.791274  	39.971660 
507.228181  	40.053456 
508.665088  	40.012344 
510.101995  	39.630241 
511.538902  	40.063719 
512.975809  	40.797028 
514.412716  	40.703230 
515.849623  	40.302749 
517.286530  	40.389664 
518.723437  	40.424211 
520.160344  	40.314163 
521.597251  	40.506782 
523.034159  	40.508758 
524.471066  	40.274799 
525.907973  	40.412807 
527.344880  	40.749365 
528.781787  	40.800359 
530.218694  	40.669664 
531.655601  	40.733433 
533.092508  	40.946903 
534.529415  	40.917194 
535.966322  	40.926137 
537.403229  	41.094341 
538.840136  	41.079660 
540.277043  	41.174962 
541.713950  	41.367484 
543.150857  	41.315980 
544.587764  	41.278676 
546.024671  	41.389064 
547.461578  	41.528085 
548.898485  	41.570642 
550.335392  	41.481190 
551.772299  	41.563984 
553.209206  	41.792905 
554.646113  	41.854327 
556.083020  	41.826691 
557.519927  	41.848970 
558.956834  	41.973817 
560.393741  	42.128571 
561.830648  	42.227325 
563.267555  	42.326400 
564.704462  	42.309004 
566.141369  	42.276361 
567.578276  	42.462355 
569.015183  	42.567594 
570.452090  	42.522360 
571.888997  	42.589516 
573.325905  	42.668470 
574.762812  	42.709315 
576.199719  	42.811097 
577.636626  	42.969683 
579.073533  	43.123976 
580.510440  	43.192118 
581.947347  	43.231801 
583.384254  	43.290367 
584.821161  	43.321520 
586.258068  	43.404774 
587.694975  	43.540959 
589.131882  	43.688462 
590.568789  	43.814546 
592.005696  	43.872000 
593.442603  	44.031744 
594.879510  	44.181704 
596.316417  	44.118552 
597.753324  	44.177138 
599.190231  	44.382047 
600.627138  	44.443783 
602.064045  	44.528174 
603.500952  	44.664664 
604.937859  	44.765794 
606.374766  	44.910826 
607.811673  	45.066789 
609.248580  	45.175196 
610.685487  	45.243474 
612.122394  	45.292190 
613.559301  	45.408982 
614.996208  	45.503935 
616.433115  	45.592770 
617.870022  	45.770054 
619.306929  	45.914362 
620.743836  	46.036678 
622.180744  	46.187782 
623.617651  	46.294215 
625.054558  	46.394500 
626.491465  	46.474058 
627.928372  	46.553914 
629.365279  	46.705654 
630.802186  	46.799938 
632.239093  	46.899124 
633.676000  	47.109111 
635.112907  	47.290871 
636.549814  	47.401059 
637.986721  	47.512262 
639.423628  	47.589166 
640.860535  	47.668059 
642.297442  	47.812015 
643.734349  	48.000787 
645.171256  	48.177100 
646.608163  	48.269159 
648.045070  	48.376958 
649.481977  	48.496610 
650.918884  	48.629867 
652.355791  	48.782080 
653.792698  	48.896189 
655.229605  	49.062596 
656.666512  	49.269854 
658.103419  	49.412798 
659.540326  	49.526650 
660.977233  	49.663435 
662.414140  	49.793822 
663.851047  	49.947228 
665.287954  	50.082508 
666.724861  	50.202300 
668.161768  	50.399001 
669.598675  	50.614546 
671.035582  	50.729231 
672.472490  	50.874879 
673.909397  	51.039965 
675.346304  	51.195636 
676.783211  	51.347919 
678.220118  	51.506393 
679.657025  	51.703644 
681.093932  	51.881775 
682.530839  	52.049188 
683.967746  	52.265254 
685.404653  	52.463100 
686.841560  	52.596013 
688.278467  	52.679546 
689.715374  	52.779246 
691.152281  	52.971007 
692.589188  	53.204821 
694.026095  	53.414277 
695.463002  	53.615947 
696.899909  	53.774005 
698.336816  	53.911340 
699.773723  	54.090652 
701.210630  	54.247446 
702.647537  	54.422875 
704.084444  	54.701938 
705.521351  	54.899298 
706.958258  	54.995503 
708.395165  	55.148511 
709.832072  	55.361033 
711.268979  	55.560553 
712.705886  	55.745244 
714.142793  	55.928544 
715.579700  	56.123363 
717.016607  	56.292092 
718.453514  	56.449151 
719.890421  	56.660273 
721.327328  	56.849310 
722.764236  	57.025306 
724.201143  	57.227256 
725.638050  	57.395011 
727.074957  	57.524956 
728.511864  	57.736334 
729.948771  	57.977080 
731.385678  	58.182152 
732.822585  	58.406646 
734.259492  	58.632017 
735.696399  	58.806609 
737.133306  	59.009721 
738.570213  	59.260397 
740.007120  	59.460047 
741.444027  	59.632681 
742.880934  	59.822271 
744.317841  	59.994695 
745.754748  	60.204852 
747.191655  	60.454341 
748.628562  	60.652538 
750.065469  	60.854075 
751.502376  	61.096778 
752.939283  	61.323250 
754.376190  	61.550520 
755.813097  	61.752140 
757.250004  	61.900220 
758.686911  	62.109463 
760.123818  	62.380028 
761.560725  	62.558016 
762.997632  	62.674723 
764.434539  	62.883057 
765.871446  	63.147205 
767.308353  	63.368681 
768.745260  	63.590102 
770.182167  	63.848675 
771.619075  	64.094221 
773.055982  	64.283655 
774.492889  	64.454643 
775.929796  	64.699088 
777.366703  	64.968753 
778.803610  	65.163060 
780.240517  	65.355208 
781.677424  	65.581996 
783.114331  	65.787829 
784.551238  	65.983556 
785.988145  	66.179030 
787.425052  	66.427051 
788.861959  	66.733502 
790.298866  	66.969334 
791.735773  	67.156463 
793.172680  	67.358522 
794.609587  	67.514768 
796.046494  	67.685467 
797.483401  	67.946903 
798.920308  	68.254709 
800.357215  	68.546794 
801.794122  	68.767912 
803.231029  	68.955114 
804.667936  	69.153771 
806.104843  	69.365645 
807.541750  	69.621419 
808.978657  	69.863187 
810.415564  	70.100665 
811.852471  	70.393550 
813.289378  	70.590939 
814.726285  	70.723264 
816.163192  	70.978672 
817.600099  	71.277670 
819.037006  	71.552060 
820.473913  	71.801670 
821.910821  	71.989460 
823.347728  	72.186998 
824.784635  	72.404331 
826.221542  	72.631956 
827.658449  	72.886594 
829.095356  	73.110307 
830.532263  	73.377174 
831.969170  	73.672374 
833.406077  	73.853010 
834.842984  	74.054882 
836.279891  	74.322730 
837.716798  	74.519852 
839.153705  	74.737052 
840.590612  	75.005805 
842.027519  	75.232729 
843.464426  	75.465803 
844.901333  	75.733933 
846.338240  	75.983063 
847.775147  	76.204513 
849.212054  	76.437220 
850.648961  	76.660556 
852.085868  	76.863899 
853.522775  	77.120993 
854.959682  	77.356154 
856.396589  	77.535406 
857.833496  	77.804923 
859.270403  	78.038738 
860.707310  	78.159893 
862.144217  	78.404356 
863.581124  	78.700303 
865.018031  	78.871315 
866.454938  	79.048526 
867.891845  	79.307082 
869.328752  	79.568086 
870.765660  	79.761331 
872.202567  	79.925118 
873.639474  	80.142731 
875.076381  	80.369898 
876.513288  	80.590436 
877.950195  	80.824604 
879.387102  	81.028083 
880.824009  	81.235784 
882.260916  	81.444826 
883.697823  	81.602281 
885.134730  	81.755502 
886.571637  	81.946143 
888.008544  	82.185213 
889.445451  	82.408260 
890.882358  	82.561805 
892.319265  	82.748901 
893.756172  	82.951386 
895.193079  	83.097810 
896.629986  	83.264564 
898.066893  	83.444011 
899.503800  	83.613702 
900.940707  	83.777824 
902.377614  	83.898492 
903.814521  	84.060988 
905.251428  	84.286734 
906.688335  	84.468811 
908.125242  	84.608219 
909.562149  	84.742678 
910.999056  	84.892283 
912.435963  	85.021101 
913.872870  	85.127560 
915.309777  	85.328298 
916.746684  	85.545346 
918.183591  	85.689776 
919.620498  	85.869886 
921.057406  	86.015042 
922.494313  	86.098397 
923.931220  	86.249423 
925.368127  	86.406517 
926.805034  	86.544820 
928.241941  	86.702854 
929.678848  	86.826332 
931.115755  	86.937525 
932.552662  	87.053547 
933.989569  	87.180942 
935.426476  	87.322192 
936.863383  	87.407770 
938.300290  	87.501863 
939.737197  	87.645307 
941.174104  	87.733310 
942.611011  	87.794411 
944.047918  	87.894914 
945.484825  	88.026485 
946.921732  	88.140212 
948.358639  	88.192759 
949.795546  	88.279987 
951.232453  	88.407681 
952.669360  	88.485026 
954.106267  	88.579185 
955.543174  	88.688056 
956.980081  	88.774178 
958.416988  	88.883104 
959.853895  	88.966864 
961.290802  	89.045317 
962.727709  	89.152082 
964.164616  	89.208836 
965.601523  	89.250257 
967.038430  	89.318567 
968.475337  	89.401755 
969.912244  	89.496571 
971.349152  	89.548332 
972.786059  	89.607377 
974.222966  	89.709372 
975.659873  	89.766770 
977.096780  	89.795661 
978.533687  	89.821452 
979.970594  	89.871387 
981.407501  	89.972356 
982.844408  	90.023463 
984.281315  	90.053855 
985.718222  	90.111996 
987.155129  	90.121925 
988.592036  	90.164314 
990.028943  	90.241736 
991.465850  	90.269671 
992.902757  	90.329568 
994.339664  	90.382767 
995.776571  	90.381176 
997.213478  	90.394300 
998.650385  	90.394662 
1000.087292  	90.425444 
1001.524199  	90.483832 
1002.961106  	90.455328 
1004.398013  	90.437004 
1005.834920  	90.483678 
1007.271827  	90.502654 
1008.708734  	90.527229 
1010.145641  	90.572206 
1011.582548  	90.600827 
1013.019455  	90.623970 
1014.456362  	90.647403 
1015.893269  	90.688858 
1017.330176  	90.742300 
1018.767083  	90.790693 
1020.203991  	90.829876 
1021.640898  	90.849243 
1023.077805  	90.873282 
1024.514712  	90.881253 
1025.951619  	90.864244 
1027.388526  	90.876266 
1028.825433  	90.880649 
1030.262340  	90.867927 
1031.699247  	90.853551 
1033.136154  	90.783507 
1034.573061  	90.730990 
1036.009968  	90.745332 
1037.446875  	90.753326 
1038.883782  	90.766423 
1040.320689  	90.778134 
1041.757596  	90.797652 
1043.194503  	90.867981 
1044.631410  	90.916302 
1046.068317  	90.972193 
1047.505224  	91.092057 
1048.942131  	91.184504 
1050.379038  	91.242531 
1051.815945  	91.281306 
1053.252852  	91.307116 
1054.689759  	91.369557 
1056.126666  	91.420795 
1057.563573  	91.453962 
1059.000480  	91.497966 
1060.437387  	91.524305 
1061.874294  	91.550875 
1063.311201  	91.538802 
1064.748108  	91.510615 
1066.185015  	91.559467 
1067.621922  	91.601796 
1069.058829  	91.617512 
1070.495737  	91.639327 
1071.932644  	91.609127 
1073.369551  	91.596621 
1074.806458  	91.609787 
1076.243365  	91.598043 
1077.680272  	91.618074 
1079.117179  	91.616924 
1080.554086  	91.599280 
1081.990993  	91.616549 
1083.427900  	91.583687 
1084.864807  	91.563968 
1086.301714  	91.608197 
1087.738621  	91.631218 
1089.175528  	91.640634 
1090.612435  	91.610225 
1092.049342  	91.578778 
1093.486249  	91.622039 
1094.923156  	91.649578 
1096.360063  	91.672935 
1097.796970  	91.704550 
1099.233877  	91.675175 
1100.670784  	91.665831 
1102.107691  	91.679767 
1103.544598  	91.690602 
1104.981505  	91.750633 
1106.418412  	91.792805 
1107.855319  	91.821761 
1109.292226  	91.853165 
1110.729133  	91.828814 
1112.166040  	91.837790 
1113.602947  	91.883102 
1115.039854  	91.903885 
1116.476761  	91.928175 
1117.913668  	91.899692 
1119.350575  	91.878687 
1120.787483  	91.939413 
1122.224390  	91.973302 
1123.661297  	92.000205 
1125.098204  	92.037982 
1126.535111  	92.033419 
1127.972018  	92.036392 
1129.408925  	92.024132 
1130.845832  	92.023455 
1132.282739  	92.088799 
1133.719646  	92.112770 
1135.156553  	92.101633 
1136.593460  	92.100627 
1138.030367  	92.078699 
1139.467274  	92.080513 
1140.904181  	92.081348 
1142.341088  	92.071601 
1143.777995  	92.095307 
1145.214902  	92.087489 
1146.651809  	92.060906 
1148.088716  	92.050395 
1149.525623  	92.040533 
1150.962530  	92.078296 
1152.399437  	92.097704 
1153.836344  	92.061116 
1155.273251  	92.058986 
1156.710158  	92.057558 
1158.147065  	92.043394 
1159.583972  	92.052763 
1161.020879  	92.061654 
1162.457786  	92.082748 
1163.894693  	92.075581 
1165.331600  	92.046236 
1166.768507  	92.066672 
1168.205414  	92.062434 
1169.642322  	92.040922 
1171.079229  	92.072659 
1172.516136  	92.086246 
1173.953043  	92.076495 
1175.389950  	92.056395 
1176.826857  	92.021489 
1178.263764  	92.036603 
1179.700671  	92.060940 
1181.137578  	92.051470 
1182.574485  	92.046300 
1184.011392  	92.036218 
1185.448299  	92.039541 
1186.885206  	92.049699 
1188.322113  	92.049757 
1189.759020  	92.074623 
1191.195927  	92.069726 
1192.632834  	92.036295 
1194.069741  	92.040752 
1195.506648  	92.031508 
1196.943555  	92.015079 
1198.380462  	92.030979 
1199.817369  	92.042343 
1201.254276  	92.044701 
1202.691183  	92.019523 
1204.128090  	91.992474 
1205.564997  	92.015365 
1207.001904  	92.024384 
1208.438811  	92.009362 
1209.875718  	92.009537 
1211.312625  	91.998656 
1212.749532  	91.986591 
1214.186439  	91.982555 
1215.623346  	91.983809 
1217.060253  	91.994955 
1218.497160  	91.993765 
1219.934068  	91.996575 
1221.370975  	91.992861 
1222.807882  	91.970315 
1224.244789  	91.980541 
1225.681696  	91.993428 
1227.118603  	91.991124 
1228.555510  	92.001333 
1229.992417  	91.976113 
1231.429324  	91.941896 
1232.866231  	91.933333 
1234.303138  	91.922406 
1235.740045  	91.943753 
1237.176952  	91.956839 
1238.613859  	91.918728 
1240.050766  	91.896429 
1241.487673  	91.887079 
1242.924580  	91.894531 
1244.361487  	91.926235 
1245.798394  	91.920528 
1247.235301  	91.896558 
1248.672208  	91.865868 
1250.109115  	91.834971 
1251.546022  	91.851611 
1252.982929  	91.849321 
1254.419836  	91.817842 
1255.856743  	91.826745 
1257.293650  	91.826780 
1258.730557  	91.798251 
1260.167464  	91.766813 
1261.604371  	91.753556 
1263.041278  	91.788894 
1264.478185  	91.803220 
1265.915092  	91.784543 
1267.351999  	91.790365 
1268.788907  	91.773186 
1270.225814  	91.754174 
1271.662721  	91.774383 
1273.099628  	91.776495 
1274.536535  	91.765464 
1275.973442  	91.749439 
1277.410349  	91.732759 
1278.847256  	91.742883 
1280.284163  	91.737109 
1281.721070  	91.720082 
1283.157977  	91.725450 
1284.594884  	91.735414 
1286.031791  	91.758977 
1287.468698  	91.770208 
1288.905605  	91.763617 
1290.342512  	91.786520 
1291.779419  	91.814014 
1293.216326  	91.832951 
1294.653233  	91.831164 
1296.090140  	91.801532 
1297.527047  	91.817628 
1298.963954  	91.851909 
1300.400861  	91.848322 
1301.837768  	91.860966 
1303.274675  	91.888008 
1304.711582  	91.897032 
1306.148489  	91.900658 
1307.585396  	91.887427 
1309.022303  	91.895481 
1310.459210  	91.900518 
1311.896117  	91.876208 
1313.333024  	91.875337 
1314.769931  	91.893660 
1316.206838  	91.904959 
1317.643745  	91.915556 
1319.080653  	91.914458 
1320.517560  	91.926562 
1321.954467  	91.940480 
1323.391374  	91.936755 
1324.828281  	91.936649 
1326.265188  	91.920452 
1327.702095  	91.905724 
1329.139002  	91.906341 
1330.575909  	91.893875 
1332.012816  	91.868372 
1333.449723  	91.849724 
1334.886630  	91.827098 
1336.323537  	91.811773 
1337.760444  	91.802183 
1339.197351  	91.790236 
1340.634258  	91.807811 
1342.071165  	91.822573 
1343.508072  	91.834617 
1344.944979  	91.826894 
1346.381886  	91.805277 
1347.818793  	91.780896 
1349.255700  	91.743381 
1350.692607  	91.720897 
1352.129514  	91.750013 
1353.566421  	91.733726 
1355.003328  	91.679823 
1356.440235  	91.646731 
1357.877142  	91.610832 
1359.314049  	91.583649 
1360.750956  	91.532914 
1362.187863  	91.478876 
1363.624770  	91.518607 
1365.061677  	91.518801 
1366.498584  	91.450370 
1367.935491  	91.396146 
1369.372399  	91.338844 
1370.809306  	91.286942 
1372.246213  	91.219046 
1373.683120  	91.132567 
1375.120027  	91.091142 
1376.556934  	91.076480 
1377.993841  	91.031566 
1379.430748  	90.966681 
1380.867655  	90.909490 
1382.304562  	90.892584 
1383.741469  	90.873626 
1385.178376  	90.842715 
1386.615283  	90.801607 
1388.052190  	90.777442 
1389.489097  	90.765137 
1390.926004  	90.741891 
1392.362911  	90.732611 
1393.799818  	90.771092 
1395.236725  	90.815967 
1396.673632  	90.806155 
1398.110539  	90.849507 
1399.547446  	90.939090 
1400.984353  	91.030018 
1402.421260  	91.082832 
1403.858167  	91.049879 
1405.295074  	91.018355 
1406.731981  	91.072539 
1408.168888  	91.090597 
1409.605795  	91.093977 
1411.042702  	91.092849 
1412.479609  	91.129701 
1413.916516  	91.238890 
1415.353423  	91.257166 
1416.790330  	91.210546 
1418.227238  	91.235476 
1419.664145  	91.289286 
1421.101052  	91.380054 
1422.537959  	91.439633 
1423.974866  	91.487255 
1425.411773  	91.606205 
1426.848680  	91.588139 
1428.285587  	91.476888 
1429.722494  	91.418815 
1431.159401  	91.494730 
1432.596308  	91.562618 
1434.033215  	91.553902 
1435.470122  	91.510738 
1436.907029  	91.556520 
1438.343936  	91.591640 
1439.780843  	91.579414 
1441.217750  	91.591070 
1442.654657  	91.588796 
1444.091564  	91.566360 
1445.528471  	91.537834 
1446.965378  	91.513669 
1448.402285  	91.547190 
1449.839192  	91.549329 
1451.276099  	91.475885 
1452.713006  	91.460337 
1454.149913  	91.502157 
1455.586820  	91.522797 
1457.023727  	91.470438 
1458.460634  	91.414341 
1459.897541  	91.483941 
1461.334448  	91.542315 
1462.771355  	91.580013 
1464.208262  	91.617530 
1465.645169  	91.566721 
1467.082076  	91.482945 
1468.518984  	91.434406 
1469.955891  	91.396470 
1471.392798  	91.440349 
1472.829705  	91.483811 
1474.266612  	91.439586 
1475.703519  	91.467889 
1477.140426  	91.472238 
1478.577333  	91.451287 
1480.014240  	91.447832 
1481.451147  	91.384956 
1482.888054  	91.356459 
1484.324961  	91.387289 
1485.761868  	91.373386 
1487.198775  	91.313291 
1488.635682  	91.218189 
1490.072589  	91.131787 
1491.509496  	91.127350 
1492.946403  	91.113207 
1494.383310  	91.116769 
1495.820217  	91.117248 
1497.257124  	91.052303 
1498.694031  	90.996690 
1500.130938  	90.949731 
1501.567845  	90.936494 
1503.004752  	90.927096 
1504.441659  	90.847659 
1505.878566  	90.772153 
1507.315473  	90.694688 
1508.752380  	90.603398 
1510.189287  	90.641871 
1511.626194  	90.634280 
1513.063101  	90.550397 
1514.500008  	90.487960 
1515.936915  	90.425115 
1517.373822  	90.408565 
1518.810730  	90.395100 
1520.247637  	90.292263 
1521.684544  	90.253010 
1523.121451  	90.288576 
1524.558358  	90.240647 
1525.995265  	90.145092 
1527.432172  	90.015979 
1528.869079  	89.952166 
1530.305986  	89.840208 
1531.742893  	89.654507 
1533.179800  	89.603318 
1534.616707  	89.605503 
1536.053614  	89.472565 
1537.490521  	89.347991 
1538.927428  	89.116277 
1540.364335  	88.995139 
1541.801242  	89.048613 
1543.238149  	88.891313 
1544.675056  	88.858872 
1546.111963  	88.816214 
1547.548870  	88.640649 
1548.985777  	88.463399 
1550.422684  	88.213970 
1551.859591  	88.011689 
1553.296498  	87.882870 
1554.733405  	87.637537 
1556.170312  	87.444013 
1557.607219  	87.312032 
1559.044126  	87.117807 
1560.481033  	87.211866 
1561.917940  	87.015958 
1563.354847  	86.819607 
1564.791754  	86.723918 
1566.228661  	86.608672 
1567.665569  	86.458047 
1569.102476  	86.201738 
1570.539383  	85.949305 
1571.976290  	85.932531 
1573.413197  	85.742476 
1574.850104  	85.470552 
1576.287011  	85.416506 
1577.723918  	85.288892 
1579.160825  	85.114377 
1580.597732  	84.991854 
1582.034639  	84.846566 
1583.471546  	84.777227 
1584.908453  	84.585829 
1586.345360  	84.263572 
1587.782267  	84.087524 
1589.219174  	83.853388 
1590.656081  	83.595792 
1592.092988  	83.349048 
1593.529895  	83.059188 
1594.966802  	82.814067 
1596.403709  	82.561070 
1597.840616  	82.242960 
1599.277523  	81.977054 
1600.714430  	81.622966 
1602.151337  	81.260870 
1603.588244  	80.914235 
1605.025151  	80.500550 
1606.462058  	80.131133 
1607.898965  	79.710183 
1609.335872  	79.199062 
1610.772779  	78.824367 
1612.209686  	78.453122 
1613.646593  	78.024712 
1615.083500  	77.602646 
1616.520407  	77.011655 
1617.957315  	76.639946 
1619.394222  	76.292722 
1620.831129  	75.776733 
1622.268036  	75.469558 
1623.704943  	75.145505 
1625.141850  	74.684974 
1626.578757  	74.389716 
1628.015664  	74.033791 
1629.452571  	73.902837 
1630.889478  	73.826965 
1632.326385  	73.452127 
1633.763292  	73.207987 
1635.200199  	73.302061 
1636.637106  	73.591608 
1638.074013  	73.586949 
1639.510920  	73.357460 
1640.947827  	73.383711 
1642.384734  	73.672641 
1643.821641  	73.729550 
1645.258548  	73.734054 
1646.695455  	73.913074 
1648.132362  	74.375356 
1649.569269  	74.797493 
1651.006176  	74.903561 
1652.443083  	75.169067 
1653.879990  	76.609381 
1655.316897  	76.379664 
1656.753804  	76.459126 
1658.190711  	76.923884 
1659.627618  	77.331734 
1661.064525  	77.731689 
1662.501432  	78.109742 
1663.938339  	78.543844 
1665.375246  	79.025779 
1666.812154  	79.277980 
1668.249061  	79.456612 
1669.685968  	79.932465 
1671.122875  	80.400643 
1672.559782  	80.937579 
1673.996689  	81.449839 
1675.433596  	81.897017 
1676.870503  	82.401230 
1678.307410  	82.649849 
1679.744317  	83.011570 
1681.181224  	83.544372 
1682.618131  	83.940281 
1684.055038  	84.360076 
1685.491945  	84.941849 
1686.928852  	85.188713 
1688.365759  	85.561439 
1689.802666  	86.009229 
1691.239573  	86.406363 
1692.676480  	86.780238 
1694.113387  	86.987841 
1695.550294  	87.297259 
1696.987201  	87.846792 
1698.424108  	88.034917 
1699.861015  	88.324857 
1701.297922  	89.007551 
1702.734829  	89.134004 
1704.171736  	89.359277 
1705.608643  	89.581761 
1707.045550  	89.867172 
1708.482457  	90.238986 
1709.919364  	90.406497 
1711.356271  	90.659222 
1712.793178  	91.011902 
1714.230085  	91.192833 
1715.666992  	91.365286 
1717.103900  	91.632203 
1718.540807  	91.917692 
1719.977714  	92.255059 
1721.414621  	92.470359 
1722.851528  	92.700030 
1724.288435  	92.999959 
1725.725342  	93.172635 
1727.162249  	93.306399 
1728.599156  	93.433990 
1730.036063  	93.576919 
1731.472970  	93.721746 
1732.909877  	93.773742 
1734.346784  	93.879324 
1735.783691  	94.130837 
1737.220598  	94.238463 
1738.657505  	94.369341 
1740.094412  	94.517074 
1741.531319  	94.605384 
1742.968226  	94.689912 
1744.405133  	94.739834 
1745.842040  	94.897167 
1747.278947  	95.094156 
1748.715854  	95.103470 
1750.152761  	95.184661 
1751.589668  	95.386059 
1753.026575  	95.471290 
1754.463482  	95.577691 
1755.900389  	95.648364 
1757.337296  	95.700922 
1758.774203  	95.794936 
1760.211110  	95.846071 
1761.648017  	95.900640 
1763.084924  	95.972723 
1764.521831  	95.957855 
1765.958738  	95.986518 
1767.395646  	96.029847 
1768.832553  	96.102793 
1770.269460  	96.225201 
1771.706367  	96.195525 
1773.143274  	96.194387 
1774.580181  	96.347384 
1776.017088  	96.429286 
1777.453995  	96.498829 
1778.890902  	96.549104 
1780.327809  	96.573882 
1781.764716  	96.601691 
1783.201623  	96.593316 
1784.638530  	96.637239 
1786.075437  	96.736344 
1787.512344  	96.763322 
1788.949251  	96.789399 
1790.386158  	96.810839 
1791.823065  	96.794221 
1793.259972  	96.884129 
1794.696879  	96.901164 
1796.133786  	96.933057 
1797.570693  	97.067908 
1799.007600  	97.127716 
1800.444507  	97.123418 
1801.881414  	97.091934 
1803.318321  	97.060680 
1804.755228  	97.157777 
1806.192135  	97.226523 
1807.629042  	97.216951 
1809.065949  	97.232733 
1810.502856  	97.192299 
1811.939763  	97.155628 
1813.376670  	97.207142 
1814.813577  	97.233384 
1816.250485  	97.275888 
1817.687392  	97.284847 
1819.124299  	97.294704 
1820.561206  	97.363278 
1821.998113  	97.339249 
1823.435020  	97.342500 
1824.871927  	97.415692 
1826.308834  	97.405282 
1827.745741  	97.439360 
1829.182648  	97.482635 
1830.619555  	97.460106 
1832.056462  	97.498003 
1833.493369  	97.513254 
1834.930276  	97.515559 
1836.367183  	97.544382 
1837.804090  	97.534805 
1839.240997  	97.508049 
1840.677904  	97.479086 
1842.114811  	97.482740 
1843.551718  	97.634113 
1844.988625  	97.678363 
1846.425532  	97.647467 
1847.862439  	97.676816 
1849.299346  	97.646130 
1850.736253  	97.733301 
1852.173160  	97.827479 
1853.610067  	97.722725 
1855.046974  	97.705550 
1856.483881  	97.726202 
1857.920788  	97.713114 
1859.357695  	97.696388 
1860.794602  	97.558483 
1862.231509  	97.556056 
1863.668416  	97.655103 
1865.105323  	97.633292 
1866.542231  	97.649811 
1867.979138  	97.610396 
1869.416045  	97.589889 
1870.852952  	97.765825 
1872.289859  	97.840793 
1873.726766  	97.923047 
1875.163673  	97.928163 
1876.600580  	97.780596 
1878.037487  	97.762588 
1879.474394  	97.741891 
1880.911301  	97.719643 
1882.348208  	97.798605 
1883.785115  	97.716933 
1885.222022  	97.662487 
1886.658929  	97.735665 
1888.095836  	97.741917 
1889.532743  	97.789515 
1890.969650  	97.741059 
1892.406557  	97.690061 
1893.843464  	97.796221 
1895.280371  	97.813373 
1896.717278  	97.808798 
1898.154185  	97.857766 
1899.591092  	97.809506 
1901.027999  	97.875125 
1902.464906  	97.892682 
1903.901813  	97.788526 
1905.338720  	97.817639 
1906.775627  	97.734273 
1908.212534  	97.713464 
1909.649441  	97.877064 
1911.086348  	97.820396 
1912.523255  	97.821640 
1913.960162  	97.888092 
1915.397069  	97.842356 
1916.833977  	97.895931 
1918.270884  	97.900354 
1919.707791  	97.833499 
1921.144698  	97.838617 
1922.581605  	97.871179 
1924.018512  	97.963838 
1925.455419  	97.984013 
1926.892326  	97.846845 
1928.329233  	97.886353 
1929.766140  	97.906825 
1931.203047  	97.864946 
1932.639954  	97.893371 
1934.076861  	97.859141 
1935.513768  	97.898121 
1936.950675  	97.915591 
1938.387582  	97.859042 
1939.824489  	98.011630 
1941.261396  	98.055593 
1942.698303  	97.952618 
1944.135210  	98.028345 
1945.572117  	98.034411 
1947.009024  	97.948160 
1948.445931  	97.924354 
1949.882838  	97.848254 
1951.319745  	97.893067 
1952.756652  	98.017183 
1954.193559  	98.026559 
1955.630466  	98.106767 
1957.067373  	97.913380 
1958.504280  	97.804288 
1959.941187  	97.900500 
1961.378094  	97.948894 
1962.815001  	98.164352 
1964.251908  	98.125296 
1965.688816  	98.068371 
1967.125723  	98.310116 
1968.562630  	98.051556 
1969.999537  	97.884988 
1971.436444  	98.190729 
1972.873351  	98.048247 
1974.310258  	98.242871 
1975.747165  	98.277611 
1977.184072  	97.969831 
1978.620979  	98.268208 
1980.057886  	98.088704 
1981.494793  	97.874236 
1982.931700  	98.169603 
1984.368607  	98.048437 
1985.805514  	97.990293 
1987.242421  	97.982526 
1988.679328  	97.719159 
1990.116235  	97.824891 
1991.553142  	97.871537 
1992.990049  	97.881292 
1994.426956  	98.048696 
1995.863863  	97.748080 
1997.300770  	97.566480 
1998.737677  	97.557859 
2000.174584  	97.336451 
2001.611491  	97.593557 
2003.048398  	97.937785 
2004.485305  	97.922380 
2005.922212  	97.791297 
2007.359119  	97.374762 
2008.796026  	97.365557 
2010.232933  	97.562072 
2011.669840  	97.306258 
2013.106747  	97.315506 
2014.543654  	97.246923 
2015.980562  	97.115228 
2017.417469  	97.477352 
2018.854376  	97.394227 
2020.291283  	97.353258 
2021.728190  	97.709514 
2023.165097  	97.405078 
2024.602004  	97.013876 
2026.038911  	96.957803 
2027.475818  	96.869330 
2028.912725  	96.939492 
2030.349632  	97.097944 
2031.786539  	97.346587 
2033.223446  	97.201237 
2034.660353  	96.635574 
2036.097260  	96.635985 
2037.534167  	96.730042 
2038.971074  	96.776111 
2040.407981  	97.234192 
2041.844888  	97.226798 
2043.281795  	96.997539 
2044.718702  	96.936605 
2046.155609  	96.491720 
2047.592516  	96.183728 
2049.029423  	96.269974 
2050.466330  	96.455756 
2051.903237  	96.656973 
2053.340144  	96.460754 
2054.777051  	96.276862 
2056.213958  	96.439713 
2057.650865  	96.377430 
2059.087772  	96.315577 
2060.524679  	96.360125 
2061.961586  	96.276582 
2063.398493  	96.366148 
2064.835401  	96.357623 
2066.272308  	96.173587 
2067.709215  	96.224060 
2069.146122  	96.288706 
2070.583029  	96.380465 
2072.019936  	96.436881 
2073.456843  	96.215858 
2074.893750  	96.142822 
2076.330657  	96.238887 
2077.767564  	96.202172 
2079.204471  	96.157812 
2080.641378  	96.103372 
2082.078285  	96.096897 
2083.515192  	96.124693 
2084.952099  	96.051078 
2086.389006  	96.066480 
2087.825913  	96.141110 
2089.262820  	96.195678 
2090.699727  	96.318864 
2092.136634  	96.309678 
2093.573541  	96.220267 
2095.010448  	96.181022 
2096.447355  	96.099124 
2097.884262  	96.106693 
2099.321169  	96.169809 
2100.758076  	96.216743 
2102.194983  	96.319348 
2103.631890  	96.284632 
2105.068797  	96.195342 
2106.505704  	96.209758 
2107.942611  	96.188993 
2109.379518  	96.202267 
2110.816425  	96.261240 
2112.253332  	96.309051 
2113.690239  	96.397692 
2115.127147  	96.413868 
2116.564054  	96.395230 
2118.000961  	96.350000 
2119.437868  	96.261238 
2120.874775  	96.321741 
2122.311682  	96.354037 
2123.748589  	96.309904 
2125.185496  	96.444508 
2126.622403  	96.484209 
2128.059310  	96.434263 
2129.496217  	96.530345 
2130.933124  	96.526755 
2132.370031  	96.549501 
2133.806938  	96.643552 
2135.243845  	96.504340 
2136.680752  	96.388785 
2138.117659  	96.421636 
2139.554566  	96.548821 
2140.991473  	96.767565 
2142.428380  	96.838521 
2143.865287  	96.919203 
2145.302194  	96.973963 
2146.739101  	96.879989 
2148.176008  	96.860167 
2149.612915  	96.555545 
2151.049822  	96.249407 
2152.486729  	96.534460 
2153.923636  	96.710967 
2155.360543  	96.707312 
2156.797450  	97.031895 
2158.234357  	97.232616 
2159.671264  	97.106599 
2161.108171  	96.815999 
2162.545078  	96.804511 
2163.981985  	96.942367 
2165.418893  	96.733438 
2166.855800  	96.668434 
2168.292707  	96.796982 
2169.729614  	96.641974 
2171.166521  	96.445324 
2172.603428  	96.423792 
2174.040335  	96.621561 
2175.477242  	96.779931 
2176.914149  	96.654729 
2178.351056  	96.787379 
2179.787963  	96.922900 
2181.224870  	96.717885 
2182.661777  	96.813702 
2184.098684  	96.855829 
2185.535591  	96.579337 
2186.972498  	96.513406 
2188.409405  	96.483809 
2189.846312  	96.463344 
2191.283219  	96.478086 
2192.720126  	96.357677 
2194.157033  	96.369245 
2195.593940  	96.364524 
2197.030847  	96.364801 
2198.467754  	96.652404 
2199.904661  	96.659857 
2201.341568  	96.434718 
2202.778475  	96.469832 
2204.215382  	96.523382 
2205.652289  	96.534429 
2207.089196  	96.532351 
2208.526103  	96.496441 
2209.963010  	96.476175 
2211.399917  	96.377472 
2212.836824  	96.568523 
2214.273732  	96.887130 
2215.710639  	96.675580 
2217.147546  	96.541510 
2218.584453  	96.719160 
2220.021360  	96.634217 
2221.458267  	96.612013 
2222.895174  	96.764172 
2224.332081  	96.702028 
2225.768988  	96.627307 
2227.205895  	96.752226 
2228.642802  	96.885169 
2230.079709  	96.818783 
2231.516616  	96.752546 
2232.953523  	96.847945 
2234.390430  	96.808429 
2235.827337  	96.714458 
2237.264244  	96.726523 
2238.701151  	96.656505 
2240.138058  	96.643552 
2241.574965  	96.720900 
2243.011872  	96.767701 
2244.448779  	96.852394 
2245.885686  	96.822055 
2247.322593  	96.784228 
2248.759500  	96.874278 
2250.196407  	96.822581 
2251.633314  	96.819127 
2253.070221  	96.869131 
2254.507128  	96.856206 
2255.944035  	96.928554 
2257.380942  	96.993443 
2258.817849  	96.958711 
2260.254756  	96.953808 
2261.691663  	96.954517 
2263.128570  	96.947658 
2264.565478  	96.936572 
2266.002385  	96.912593 
2267.439292  	97.004912 
2268.876199  	97.081427 
2270.313106  	97.053699 
2271.750013  	97.103643 
2273.186920  	97.176744 
2274.623827  	97.196858 
2276.060734  	97.188115 
2277.497641  	97.118926 
2278.934548  	97.096035 
2280.371455  	97.149799 
2281.808362  	97.183521 
2283.245269  	97.192579 
2284.682176  	97.177665 
2286.119083  	97.188333 
2287.555990  	97.217997 
2288.992897  	97.216495 
2290.429804  	97.239749 
2291.866711  	97.255542 
2293.303618  	97.243037 
2294.740525  	97.249550 
2296.177432  	97.257753 
2297.614339  	97.240417 
2299.051246  	97.279029 
2300.488153  	97.325487 
2301.925060  	97.309966 
2303.361967  	97.257198 
2304.798874  	97.214334 
2306.235781  	97.265160 
2307.672688  	97.273202 
2309.109595  	97.235894 
2310.546502  	97.239520 
2311.983409  	97.210447 
2313.420317  	97.234140 
2314.857224  	97.316186 
2316.294131  	97.329695 
2317.731038  	97.338260 
2319.167945  	97.357646 
2320.604852  	97.409665 
2322.041759  	97.499732 
2323.478666  	97.502075 
2324.915573  	97.497905 
2326.352480  	97.515472 
2327.789387  	97.497005 
2329.226294  	97.527689 
2330.663201  	97.522357 
2332.100108  	97.476990 
2333.537015  	97.554169 
2334.973922  	97.629780 
2336.410829  	97.670921 
2337.847736  	97.697105 
2339.284643  	97.625199 
2340.721550  	97.633170 
2342.158457  	97.741243 
2343.595364  	97.763572 
2345.032271  	97.735918 
2346.469178  	97.658000 
2347.906085  	97.555604 
2349.342992  	97.498819 
2350.779899  	97.498392 
2352.216806  	97.493616 
2353.653713  	97.482941 
2355.090620  	97.478789 
2356.527527  	97.549886 
2357.964434  	97.621597 
2359.401341  	97.644991 
2360.838248  	97.680766 
2362.275155  	97.697790 
2363.712063  	97.760711 
2365.148970  	97.825981 
2366.585877  	97.856499 
2368.022784  	97.906964 
2369.459691  	97.922297 
2370.896598  	97.939207 
2372.333505  	97.968588 
2373.770412  	97.951076 
2375.207319  	97.931332 
2376.644226  	97.911125 
2378.081133  	97.894576 
2379.518040  	97.929535 
2380.954947  	97.979378 
2382.391854  	98.012713 
2383.828761  	98.039158 
2385.265668  	98.038464 
2386.702575  	97.988548 
2388.139482  	97.965810 
2389.576389  	97.975501 
2391.013296  	98.008845 
2392.450203  	97.993701 
2393.887110  	97.953564 
2395.324017  	97.952895 
2396.760924  	97.947258 
2398.197831  	97.980705 
2399.634738  	98.040189 
2401.071645  	98.040581 
2402.508552  	98.055748 
2403.945459  	98.076217 
2405.382366  	98.082897 
2406.819273  	98.137316 
2408.256180  	98.139276 
2409.693087  	98.100832 
2411.129994  	98.134157 
2412.566901  	98.178763 
2414.003809  	98.212867 
2415.440716  	98.245077 
2416.877623  	98.261036 
2418.314530  	98.266731 
2419.751437  	98.237264 
2421.188344  	98.235929 
2422.625251  	98.265790 
2424.062158  	98.262041 
2425.499065  	98.299946 
2426.935972  	98.334447 
2428.372879  	98.309821 
2429.809786  	98.312993 
2431.246693  	98.292502 
2432.683600  	98.280299 
2434.120507  	98.343048 
2435.557414  	98.352539 
2436.994321  	98.344393 
2438.431228  	98.383160 
2439.868135  	98.384210 
2441.305042  	98.347600 
2442.741949  	98.282297 
2444.178856  	98.256854 
2445.615763  	98.319377 
2447.052670  	98.358708 
2448.489577  	98.386636 
2449.926484  	98.410990 
2451.363391  	98.390477 
2452.800298  	98.427455 
2454.237205  	98.461369 
2455.674112  	98.416311 
2457.111019  	98.411776 
2458.547926  	98.430403 
2459.984833  	98.432536 
2461.421740  	98.431994 
2462.858648  	98.399738 
2464.295555  	98.416744 
2465.732462  	98.470319 
2467.169369  	98.448156 
2468.606276  	98.411975 
2470.043183  	98.412704 
2471.480090  	98.434855 
2472.916997  	98.470116 
2474.353904  	98.459400 
2475.790811  	98.418019 
2477.227718  	98.413287 
2478.664625  	98.443515 
2480.101532  	98.478606 
2481.538439  	98.491988 
2482.975346  	98.485283 
2484.412253  	98.465447 
2485.849160  	98.463778 
2487.286067  	98.506709 
2488.722974  	98.516884 
2490.159881  	98.480167 
2491.596788  	98.479032 
2493.033695  	98.508800 
2494.470602  	98.529800 
2495.907509  	98.528696 
2497.344416  	98.533314 
2498.781323  	98.545139 
2500.218230  	98.524337 
2501.655137  	98.565051 
2503.092044  	98.638690 
2504.528951  	98.588514 
2505.965858  	98.555302 
2507.402765  	98.574044 
2508.839672  	98.510864 
2510.276579  	98.511757 
2511.713486  	98.566453 
2513.150394  	98.549874 
2514.587301  	98.597784 
2516.024208  	98.660094 
2517.461115  	98.625695 
2518.898022  	98.605341 
2520.334929  	98.608846 
2521.771836  	98.601358 
2523.208743  	98.570186 
2524.645650  	98.502499 
2526.082557  	98.494439 
2527.519464  	98.558567 
2528.956371  	98.619562 
2530.393278  	98.650222 
2531.830185  	98.616320 
2533.267092  	98.571670 
2534.703999  	98.585577 
2536.140906  	98.623930 
2537.577813  	98.646897 
2539.014720  	98.643965 
2540.451627  	98.653395 
2541.888534  	98.657300 
2543.325441  	98.624744 
2544.762348  	98.661024 
2546.199255  	98.708981 
2547.636162  	98.648137 
2549.073069  	98.621642 
2550.509976  	98.659631 
2551.946883  	98.646200 
2553.383790  	98.615217 
2554.820697  	98.604129 
2556.257604  	98.625737 
2557.694511  	98.668340 
2559.131418  	98.668977 
2560.568325  	98.654276 
2562.005232  	98.659617 
2563.442140  	98.676191 
2564.879047  	98.679579 
2566.315954  	98.626584 
2567.752861  	98.591289 
2569.189768  	98.632058 
2570.626675  	98.662155 
2572.063582  	98.652604 
2573.500489  	98.629792 
2574.937396  	98.618961 
2576.374303  	98.647664 
2577.811210  	98.663970 
2579.248117  	98.622689 
2580.685024  	98.570692 
2582.121931  	98.597826 
2583.558838  	98.684257 
2584.995745  	98.679101 
2586.432652  	98.621650 
2587.869559  	98.641678 
2589.306466  	98.652540 
2590.743373  	98.625242 
2592.180280  	98.625719 
2593.617187  	98.619841 
2595.054094  	98.611764 
2596.491001  	98.612208 
2597.927908  	98.608228 
2599.364815  	98.619924 
2600.801722  	98.613586 
2602.238629  	98.593396 
2603.675536  	98.592089 
2605.112443  	98.578803 
2606.549350  	98.575976 
2607.986257  	98.592996 
2609.423164  	98.593473 
2610.860071  	98.599069 
2612.296979  	98.603148 
2613.733886  	98.584051 
2615.170793  	98.566037 
2616.607700  	98.565728 
2618.044607  	98.576467 
2619.481514  	98.571968 
2620.918421  	98.570515 
2622.355328  	98.578329 
2623.792235  	98.541969 
2625.229142  	98.522009 
2626.666049  	98.564664 
2628.102956  	98.580597 
2629.539863  	98.572247 
2630.976770  	98.569691 
2632.413677  	98.555054 
2633.850584  	98.569916 
2635.287491  	98.604181 
2636.724398  	98.613818 
2638.161305  	98.611235 
2639.598212  	98.605722 
2641.035119  	98.615073 
2642.472026  	98.622454 
2643.908933  	98.602819 
2645.345840  	98.600043 
2646.782747  	98.613338 
2648.219654  	98.616691 
2649.656561  	98.625856 
2651.093468  	98.639950 
2652.530375  	98.657297 
2653.967282  	98.652242 
2655.404189  	98.619488 
2656.841096  	98.619813 
2658.278003  	98.637388 
2659.714910  	98.636299 
2661.151817  	98.639856 
2662.588725  	98.639608 
2664.025632  	98.652143 
2665.462539  	98.676539 
2666.899446  	98.655167 
2668.336353  	98.625677 
2669.773260  	98.625145 
2671.210167  	98.623642 
2672.647074  	98.634682 
2674.083981  	98.640389 
2675.520888  	98.617295 
2676.957795  	98.607238 
2678.394702  	98.616721 
2679.831609  	98.630223 
2681.268516  	98.643152 
2682.705423  	98.646344 
2684.142330  	98.644300 
2685.579237  	98.630186 
2687.016144  	98.618875 
2688.453051  	98.631062 
2689.889958  	98.632173 
2691.326865  	98.620057 
2692.763772  	98.624754 
2694.200679  	98.633098 
2695.637586  	98.628755 
2697.074493  	98.612471 
2698.511400  	98.596879 
2699.948307  	98.584412 
2701.385214  	98.565073 
2702.822121  	98.557639 
2704.259028  	98.567597 
2705.695935  	98.582259 
2707.132842  	98.593273 
2708.569749  	98.574584 
2710.006656  	98.551533 
2711.443564  	98.557883 
2712.880471  	98.551500 
2714.317378  	98.526863 
2715.754285  	98.516037 
2717.191192  	98.517635 
2718.628099  	98.524189 
2720.065006  	98.520566 
2721.501913  	98.515409 
2722.938820  	98.511935 
2724.375727  	98.485821 
2725.812634  	98.474047 
2727.249541  	98.481422 
2728.686448  	98.456807 
2730.123355  	98.430194 
2731.560262  	98.426579 
2732.997169  	98.429448 
2734.434076  	98.432764 
2735.870983  	98.408490 
2737.307890  	98.384540 
2738.744797  	98.396907 
2740.181704  	98.393127 
2741.618611  	98.358752 
2743.055518  	98.324125 
2744.492425  	98.308583 
2745.929332  	98.327158 
2747.366239  	98.340636 
2748.803146  	98.324237 
2750.240053  	98.303838 
2751.676960  	98.292484 
2753.113867  	98.306994 
2754.550774  	98.318231 
2755.987681  	98.285756 
2757.424588  	98.259822 
2758.861495  	98.258192 
2760.298402  	98.234752 
2761.735310  	98.199701 
2763.172217  	98.192347 
2764.609124  	98.199451 
2766.046031  	98.177465 
2767.482938  	98.159862 
2768.919845  	98.186373 
2770.356752  	98.178739 
2771.793659  	98.132804 
2773.230566  	98.139037 
2774.667473  	98.152435 
2776.104380  	98.110145 
2777.541287  	98.067913 
2778.978194  	98.064599 
2780.415101  	98.063478 
2781.852008  	98.033327 
2783.288915  	98.011095 
2784.725822  	98.005986 
2786.162729  	97.975951 
2787.599636  	97.957040 
2789.036543  	97.955065 
2790.473450  	97.912429 
2791.910357  	97.881804 
2793.347264  	97.893060 
2794.784171  	97.879920 
2796.221078  	97.850882 
2797.657985  	97.839361 
2799.094892  	97.827595 
2800.531799  	97.798361 
2801.968706  	97.769277 
2803.405613  	97.776615 
2804.842520  	97.780438 
2806.279427  	97.731657 
2807.716334  	97.687884 
2809.153241  	97.678207 
2810.590148  	97.666491 
2812.027056  	97.646865 
2813.463963  	97.616388 
2814.900870  	97.583817 
2816.337777  	97.576355 
2817.774684  	97.579422 
2819.211591  	97.563366 
2820.648498  	97.537206 
2822.085405  	97.519352 
2823.522312  	97.495608 
2824.959219  	97.461365 
2826.396126  	97.426154 
2827.833033  	97.373986 
2829.269940  	97.333422 
2830.706847  	97.332012 
2832.143754  	97.317098 
2833.580661  	97.292379 
2835.017568  	97.278035 
2836.454475  	97.227403 
2837.891382  	97.174579 
2839.328289  	97.151641 
2840.765196  	97.104920 
2842.202103  	97.050588 
2843.639010  	97.013316 
2845.075917  	96.968407 
2846.512824  	96.929229 
2847.949731  	96.889809 
2849.386638  	96.833365 
2850.823545  	96.792078 
2852.260452  	96.767907 
2853.697359  	96.727574 
2855.134266  	96.687965 
2856.571173  	96.692782 
2858.008080  	96.705547 
2859.444987  	96.669109 
2860.881895  	96.629416 
2862.318802  	96.610842 
2863.755709  	96.578835 
2865.192616  	96.553270 
2866.629523  	96.520196 
2868.066430  	96.457436 
2869.503337  	96.416532 
2870.940244  	96.386480 
2872.377151  	96.342746 
2873.814058  	96.315379 
2875.250965  	96.275659 
2876.687872  	96.217867 
2878.124779  	96.183996 
2879.561686  	96.148369 
2880.998593  	96.093677 
2882.435500  	96.042128 
2883.872407  	95.993766 
2885.309314  	95.944799 
2886.746221  	95.886917 
2888.183128  	95.831858 
2889.620035  	95.806116 
2891.056942  	95.773129 
2892.493849  	95.698107 
2893.930756  	95.628161 
2895.367663  	95.595686 
2896.804570  	95.553902 
2898.241477  	95.466417 
2899.678384  	95.374430 
2901.115291  	95.320792 
2902.552198  	95.277347 
2903.989105  	95.212927 
2905.426012  	95.155713 
2906.862919  	95.111286 
2908.299826  	95.029516 
2909.736733  	94.929776 
2911.173641  	94.880279 
2912.610548  	94.844699 
2914.047455  	94.762604 
2915.484362  	94.660540 
2916.921269  	94.572888 
2918.358176  	94.505068 
2919.795083  	94.435938 
2921.231990  	94.353668 
2922.668897  	94.290893 
2924.105804  	94.227292 
2925.542711  	94.140429 
2926.979618  	94.085711 
2928.416525  	94.047399 
2929.853432  	93.985154 
2931.290339  	93.925671 
2932.727246  	93.858493 
2934.164153  	93.795872 
2935.601060  	93.757264 
2937.037967  	93.692598 
2938.474874  	93.620418 
2939.911781  	93.561952 
2941.348688  	93.478814 
2942.785595  	93.404541 
2944.222502  	93.341125 
2945.659409  	93.251215 
2947.096316  	93.168217 
2948.533223  	93.078904 
2949.970130  	92.957784 
2951.407037  	92.838984 
2952.843944  	92.733077 
2954.280851  	92.652043 
2955.717758  	92.577465 
2957.154665  	92.469626 
2958.591572  	92.367687 
2960.028479  	92.290170 
2961.465387  	92.221588 
2962.902294  	92.153567 
2964.339201  	92.044708 
2965.776108  	91.931217 
2967.213015  	91.853337 
2968.649922  	91.748064 
2970.086829  	91.622546 
2971.523736  	91.508997 
2972.960643  	91.393135 
2974.397550  	91.305520 
2975.834457  	91.228970 
2977.271364  	91.122648 
2978.708271  	90.996459 
2980.145178  	90.837302 
2981.582085  	90.685199 
2983.018992  	90.603732 
2984.455899  	90.550279 
2985.892806  	90.465778 
2987.329713  	90.344075 
2988.766620  	90.222248 
2990.203527  	90.112619 
2991.640434  	89.981674 
2993.077341  	89.852090 
2994.514248  	89.729068 
2995.951155  	89.595290 
2997.388062  	89.490790 
2998.824969  	89.378649 
3000.261876  	89.239434 
3001.698783  	89.124562 
3003.135690  	88.980729 
3004.572597  	88.824978 
3006.009504  	88.719407 
3007.446411  	88.579836 
3008.883318  	88.419384 
3010.320226  	88.300221 
3011.757133  	88.166497 
3013.194040  	88.009895 
3014.630947  	87.843310 
3016.067854  	87.679812 
3017.504761  	87.542082 
3018.941668  	87.382851 
3020.378575  	87.211619 
3021.815482  	87.059164 
3023.252389  	86.896583 
3024.689296  	86.735192 
3026.126203  	86.562206 
3027.563110  	86.375157 
3029.000017  	86.207240 
3030.436924  	86.032437 
3031.873831  	85.863481 
3033.310738  	85.698213 
3034.747645  	85.519540 
3036.184552  	85.374058 
3037.621459  	85.195131 
3039.058366  	84.980440 
3040.495273  	84.828625 
3041.932180  	84.648630 
3043.369087  	84.428332 
3044.805994  	84.244842 
3046.242901  	84.034486 
3047.679808  	83.822764 
3049.116715  	83.630967 
3050.553622  	83.428330 
3051.990529  	83.250509 
3053.427436  	83.026657 
3054.864343  	82.782758 
3056.301250  	82.605178 
3057.738157  	82.382277 
3059.175064  	82.145743 
3060.611972  	81.965778 
3062.048879  	81.749434 
3063.485786  	81.520734 
3064.922693  	81.302869 
3066.359600  	81.088762 
3067.796507  	80.894454 
3069.233414  	80.656731 
3070.670321  	80.418746 
3072.107228  	80.193280 
3073.544135  	79.928174 
3074.981042  	79.707486 
3076.417949  	79.479876 
3077.854856  	79.201074 
3079.291763  	78.963595 
3080.728670  	78.710960 
3082.165577  	78.462931 
3083.602484  	78.233630 
3085.039391  	77.947663 
3086.476298  	77.709093 
3087.913205  	77.463995 
3089.350112  	77.155675 
3090.787019  	76.929966 
3092.223926  	76.676404 
3093.660833  	76.379552 
3095.097740  	76.157544 
3096.534647  	75.882791 
3097.971554  	75.612411 
3099.408461  	75.403603 
3100.845368  	75.136473 
3102.282275  	74.880672 
3103.719182  	74.617789 
3105.156089  	74.318821 
3106.592996  	74.069552 
3108.029903  	73.791175 
3109.466811  	73.492227 
3110.903718  	73.210078 
3112.340625  	72.906006 
3113.777532  	72.642483 
3115.214439  	72.363008 
3116.651346  	72.069696 
3118.088253  	71.824901 
3119.525160  	71.517323 
3120.962067  	71.230612 
3122.398974  	70.998304 
3123.835881  	70.686413 
3125.272788  	70.389625 
3126.709695  	70.108603 
3128.146602  	69.816889 
3129.583509  	69.570363 
3131.020416  	69.266865 
3132.457323  	68.975319 
3133.894230  	68.723715 
3135.331137  	68.408192 
3136.768044  	68.151784 
3138.204951  	67.884590 
3139.641858  	67.543983 
3141.078765  	67.275509 
3142.515672  	66.979690 
3143.952579  	66.683845 
3145.389486  	66.451780 
3146.826393  	66.155419 
3148.263300  	65.887177 
3149.700207  	65.629211 
3151.137114  	65.327603 
3152.574021  	65.079309 
3154.010928  	64.776091 
3155.447835  	64.489706 
3156.884742  	64.275775 
3158.321649  	63.973172 
3159.758557  	63.719473 
3161.195464  	63.485118 
3162.632371  	63.186785 
3164.069278  	62.982950 
3165.506185  	62.718965 
3166.943092  	62.429383 
3168.379999  	62.249873 
3169.816906  	61.963070 
3171.253813  	61.684544 
3172.690720  	61.474426 
3174.127627  	61.189120 
3175.564534  	60.972367 
3177.001441  	60.744396 
3178.438348  	60.480399 
3179.875255  	60.294079 
3181.312162  	60.017527 
3182.749069  	59.758084 
3184.185976  	59.580102 
3185.622883  	59.337934 
3187.059790  	59.141510 
3188.496697  	58.930336 
3189.933604  	58.712800 
3191.370511  	58.574186 
3192.807418  	58.328555 
3194.244325  	58.105593 
3195.681232  	57.957230 
3197.118139  	57.747907 
3198.555046  	57.623611 
3199.991953  	57.432451 
3201.428860  	57.164549 
3202.865767  	57.055536 
3204.302674  	56.913066 
3205.739581  	56.752803 
3207.176488  	56.603723 
3208.613395  	56.362419 
3210.050303  	56.267958 
3211.487210  	56.161908 
3212.924117  	55.912912 
3214.361024  	55.788966 
3215.797931  	55.664721 
3217.234838  	55.540537 
3218.671745  	55.446022 
3220.108652  	55.253351 
3221.545559  	55.191749 
3222.982466  	55.115086 
3224.419373  	54.901080 
3225.856280  	54.834105 
3227.293187  	54.735611 
3228.730094  	54.620155 
3230.167001  	54.598603 
3231.603908  	54.444231 
3233.040815  	54.372026 
3234.477722  	54.367310 
3235.914629  	54.238787 
3237.351536  	54.213796 
3238.788443  	54.155911 
3240.225350  	54.048140 
3241.662257  	54.047344 
3243.099164  	53.952825 
3244.536071  	53.897022 
3245.972978  	53.901581 
3247.409885  	53.804224 
3248.846792  	53.783874 
3250.283699  	53.752320 
3251.720606  	53.710870 
3253.157513  	53.720348 
3254.594420  	53.596602 
3256.031327  	53.572020 
3257.468234  	53.604996 
3258.905142  	53.488187 
3260.342049  	53.510798 
3261.778956  	53.529996 
3263.215863  	53.451660 
3264.652770  	53.475820 
3266.089677  	53.423533 
3267.526584  	53.402969 
3268.963491  	53.431621 
3270.400398  	53.314210 
3271.837305  	53.290877 
3273.274212  	53.295718 
3274.711119  	53.260344 
3276.148026  	53.312016 
3277.584933  	53.225666 
3279.021840  	53.162049 
3280.458747  	53.227465 
3281.895654  	53.211093 
3283.332561  	53.271709 
3284.769468  	53.281885 
3286.206375  	53.187519 
3287.643282  	53.232873 
3289.080189  	53.224571 
3290.517096  	53.203809 
3291.954003  	53.213812 
3293.390910  	53.105351 
3294.827817  	53.140415 
3296.264724  	53.182321 
3297.701631  	53.111239 
3299.138538  	53.159735 
3300.575445  	53.105278 
3302.012352  	53.061971 
3303.449259  	53.156684 
3304.886166  	53.084976 
3306.323073  	53.061697 
3307.759980  	53.083631 
3309.196888  	53.007966 
3310.633795  	53.078901 
3312.070702  	53.090478 
3313.507609  	53.043651 
3314.944516  	53.091139 
3316.381423  	53.026598 
3317.818330  	53.046228 
3319.255237  	53.090855 
3320.692144  	53.001043 
3322.129051  	53.062410 
3323.565958  	53.062566 
3325.002865  	52.992595 
3326.439772  	53.082631 
3327.876679  	53.057705 
3329.313586  	53.049462 
3330.750493  	53.097793 
3332.187400  	53.017632 
3333.624307  	53.055482 
3335.061214  	53.058926 
3336.498121  	52.992182 
3337.935028  	53.072659 
3339.371935  	53.044091 
3340.808842  	53.045068 
3342.245749  	53.133337 
3343.682656  	53.067422 
3345.119563  	53.098125 
3346.556470  	53.147804 
3347.993377  	53.121886 
3349.430284  	53.196356 
3350.867191  	53.168983 
3352.304098  	53.185985 
3353.741005  	53.303797 
3355.177912  	53.273099 
3356.614819  	53.340929 
3358.051726  	53.409598 
3359.488634  	53.352028 
3360.925541  	53.430980 
3362.362448  	53.484962 
3363.799355  	53.545135 
3365.236262  	53.661945 
3366.673169  	53.661252 
3368.110076  	53.749522 
3369.546983  	53.804012 
3370.983890  	53.804104 
3372.420797  	53.993399 
3373.857704  	54.040935 
3375.294611  	54.033280 
3376.731518  	54.166079 
3378.168425  	54.189164 
3379.605332  	54.312346 
3381.042239  	54.456595 
3382.479146  	54.456549 
3383.916053  	54.601841 
3385.352960  	54.708029 
3386.789867  	54.800078 
3388.226774  	55.025589 
3389.663681  	55.089680 
3391.100588  	55.151611 
3392.537495  	55.250355 
3393.974402  	55.299780 
3395.411309  	55.523185 
3396.848216  	55.668202 
3398.285123  	55.754038 
3399.722030  	55.959791 
3401.158937  	56.029279 
3402.595844  	56.165512 
3404.032751  	56.370548 
3405.469658  	56.471319 
3406.906565  	56.705645 
3408.343473  	56.828176 
3409.780380  	56.880617 
3411.217287  	57.136342 
3412.654194  	57.232144 
3414.091101  	57.346382 
3415.528008  	57.641581 
3416.964915  	57.768078 
3418.401822  	57.896329 
3419.838729  	58.068947 
3421.275636  	58.240538 
3422.712543  	58.513466 
3424.149450  	58.664121 
3425.586357  	58.824702 
3427.023264  	59.046027 
3428.460171  	59.155712 
3429.897078  	59.394207 
3431.333985  	59.631189 
3432.770892  	59.748025 
3434.207799  	59.957025 
3435.644706  	60.105893 
3437.081613  	60.283957 
3438.518520  	60.533289 
3439.955427  	60.655876 
3441.392334  	60.863479 
3442.829241  	61.101632 
3444.266148  	61.289287 
3445.703055  	61.564840 
3447.139962  	61.751951 
3448.576869  	61.972214 
3450.013776  	62.220680 
3451.450683  	62.306804 
3452.887590  	62.540826 
3454.324497  	62.795733 
3455.761404  	62.899396 
3457.198311  	63.137605 
3458.635219  	63.364182 
3460.072126  	63.582071 
3461.509033  	63.852972 
3462.945940  	63.972694 
3464.382847  	64.167550 
3465.819754  	64.419049 
3467.256661  	64.606845 
3468.693568  	64.893005 
3470.130475  	65.067220 
3471.567382  	65.220424 
3473.004289  	65.505457 
3474.441196  	65.661692 
3475.878103  	65.845086 
3477.315010  	66.060494 
3478.751917  	66.185136 
3480.188824  	66.449765 
3481.625731  	66.679748 
3483.062638  	66.829551 
3484.499545  	67.092044 
3485.936452  	67.315478 
3487.373359  	67.583158 
3488.810266  	67.847511 
3490.247173  	68.022830 
3491.684080  	68.299676 
3493.120987  	68.469657 
3494.557894  	68.578321 
3495.994801  	68.839807 
3497.431708  	69.000141 
3498.868615  	69.174133 
3500.305522  	69.436097 
3501.742429  	69.606431 
3503.179336  	69.856926 
3504.616243  	70.119970 
3506.053150  	70.329133 
3507.490058  	70.580341 
3508.926965  	70.745540 
3510.363872  	70.966549 
3511.800779  	71.217499 
3513.237686  	71.359914 
3514.674593  	71.628250 
3516.111500  	71.861280 
3517.548407  	71.972683 
3518.985314  	72.178880 
3520.422221  	72.350284 
3521.859128  	72.549818 
3523.296035  	72.812813 
3524.732942  	72.998330 
3526.169849  	73.309025 
3527.606756  	73.616679 
3529.043663  	73.807413 
3530.480570  	74.083838 
3531.917477  	74.279689 
3533.354384  	74.427729 
3534.791291  	74.666539 
3536.228198  	74.874236 
3537.665105  	75.076134 
3539.102012  	75.215246 
3540.538919  	75.341075 
3541.975826  	75.601259 
3543.412733  	75.823827 
3544.849640  	76.049483 
3546.286547  	76.343835 
3547.723454  	76.550256 
3549.160361  	76.782981 
3550.597268  	77.013933 
3552.034175  	77.244417 
3553.471082  	77.548175 
3554.907989  	77.736947 
3556.344896  	77.930755 
3557.781804  	78.140035 
3559.218711  	78.190022 
3560.655618  	78.323318 
3562.092525  	78.558097 
3563.529432  	78.740158 
3564.966339  	78.985907 
3566.403246  	79.246840 
3567.840153  	79.615549 
3569.277060  	79.944090 
3570.713967  	80.028610 
3572.150874  	80.269135 
3573.587781  	80.587223 
3575.024688  	80.747210 
3576.461595  	80.914099 
3577.898502  	81.046905 
3579.335409  	81.165269 
3580.772316  	81.355772 
3582.209223  	81.489041 
3583.646130  	81.664600 
3585.083037  	81.848675 
3586.519944  	82.012908 
3587.956851  	82.406083 
3589.393758  	82.656501 
3590.830665  	82.710125 
3592.267572  	82.924828 
3593.704479  	83.159613 
3595.141386  	83.486296 
3596.578293  	83.842296 
3598.015200  	83.857373 
3599.452107  	83.767738 
3600.889014  	83.839535 
3602.325921  	84.059480 
3603.762828  	84.302443 
3605.199735  	84.463928 
3606.636642  	84.695964 
3608.073550  	85.008424 
3609.510457  	85.179223 
3610.947364  	85.301907 
3612.384271  	85.488795 
3613.821178  	85.802717 
3615.258085  	86.105698 
3616.694992  	86.196911 
3618.131899  	86.360753 
3619.568806  	86.604281 
3621.005713  	86.598484 
3622.442620  	86.612704 
3623.879527  	86.801094 
3625.316434  	87.047035 
3626.753341  	87.227098 
3628.190248  	87.367280 
3629.627155  	87.770937 
3631.064062  	88.132364 
3632.500969  	88.294969 
3633.937876  	88.678387 
3635.374783  	88.960874 
3636.811690  	89.138197 
3638.248597  	89.370778 
3639.685504  	89.362105 
3641.122411  	89.405591 
3642.559318  	89.586963 
3643.996225  	89.597356 
3645.433132  	89.734595 
3646.870039  	90.044927 
3648.306946  	90.261951 
3649.743853  	90.476419 
3651.180760  	90.788904 
3652.617667  	91.325143 
3654.054574  	91.782902 
3655.491481  	92.258080 
3656.928389  	92.751788 
3658.365296  	92.751067 
3659.802203  	92.645537 
3661.239110  	92.696586 
3662.676017  	92.742475 
3664.112924  	93.000802 
3665.549831  	93.283636 
3666.986738  	93.398562 
3668.423645  	93.503973 
3669.860552  	93.723594 
3671.297459  	93.919019 
3672.734366  	94.153306 
3674.171273  	94.427190 
3675.608180  	94.851250 
3677.045087  	95.483306 
3678.481994  	95.452361 
3679.918901  	95.457864 
3681.355808  	95.496992 
3682.792715  	95.605292 
3684.229622  	95.729562 
3685.666529  	95.785943 
3687.103436  	95.925604 
3688.540343  	96.193892 
3689.977250  	96.359539 
3691.414157  	96.527170 
3692.851064  	96.698306 
3694.287971  	96.820866 
3695.724878  	97.031023 
3697.161785  	97.173943 
3698.598692  	97.231912 
3700.035599  	97.392976 
3701.472506  	97.630465 
3702.909413  	97.728164 
3704.346320  	97.734947 
3705.783227  	97.641329 
3707.220135  	97.532631 
3708.657042  	97.592378 
3710.093949  	97.798307 
3711.530856  	97.993327 
3712.967763  	98.132234 
3714.404670  	98.189662 
3715.841577  	98.176109 
3717.278484  	98.254250 
3718.715391  	98.339141 
3720.152298  	98.264223 
3721.589205  	98.241169 
3723.026112  	98.199516 
3724.463019  	98.080924 
3725.899926  	98.238972 
3727.336833  	98.401492 
3728.773740  	98.301143 
3730.210647  	98.326738 
3731.647554  	98.311738 
3733.084461  	98.150124 
3734.521368  	98.362959 
3735.958275  	98.545320 
3737.395182  	98.392484 
3738.832089  	98.535800 
3740.268996  	98.667782 
3741.705903  	98.515446 
3743.142810  	98.401727 
3744.579717  	98.231591 
3746.016624  	97.949532 
3747.453531  	98.210525 
3748.890438  	98.566673 
3750.327345  	98.664647 
3751.764252  	98.633841 
3753.201159  	98.696142 
3754.638066  	98.589755 
3756.074973  	98.664544 
3757.511881  	98.831651 
3758.948788  	98.751969 
3760.385695  	98.750812 
3761.822602  	98.809219 
3763.259509  	98.749406 
3764.696416  	98.867102 
3766.133323  	98.888918 
3767.570230  	98.645592 
3769.007137  	98.688693 
3770.444044  	98.838700 
3771.880951  	98.754152 
3773.317858  	98.747557 
3774.754765  	98.738110 
3776.191672  	98.705095 
3777.628579  	98.712068 
3779.065486  	98.811035 
3780.502393  	98.854082 
3781.939300  	98.815129 
3783.376207  	98.857696 
3784.813114  	98.977231 
3786.250021  	99.034316 
3787.686928  	98.998561 
3789.123835  	98.876152 
3790.560742  	98.807516 
3791.997649  	98.869579 
3793.434556  	98.824066 
3794.871463  	98.710353 
3796.308370  	98.750400 
3797.745277  	98.901003 
3799.182184  	98.957799 
3800.619091  	98.967613 
3802.055998  	98.866244 
3803.492905  	98.871328 
3804.929812  	99.054632 
3806.366720  	99.259012 
3807.803627  	99.240348 
3809.240534  	99.060114 
3810.677441  	99.030513 
3812.114348  	98.996064 
3813.551255  	98.942232 
3814.988162  	99.027981 
3816.425069  	99.082039 
3817.861976  	98.919296 
3819.298883  	98.935930 
3820.735790  	99.213693 
3822.172697  	99.432444 
3823.609604  	99.183449 
3825.046511  	99.008302 
3826.483418  	98.988551 
3827.920325  	99.057079 
3829.357232  	99.164331 
3830.794139  	99.184541 
3832.231046  	99.042004 
3833.667953  	99.022710 
3835.104860  	99.112389 
3836.541767  	99.040013 
3837.978674  	98.955431 
3839.415581  	99.026701 
3840.852488  	99.032732 
3842.289395  	99.056526 
3843.726302  	99.175794 
3845.163209  	99.193264 
3846.600116  	99.113566 
3848.037023  	99.065056 
3849.473930  	98.997888 
3850.910837  	98.969786 
3852.347744  	99.073094 
3853.784651  	99.022533 
3855.221558  	98.899993 
3856.658466  	98.972208 
3858.095373  	99.013465 
3859.532280  	99.136904 
3860.969187  	99.272408 
3862.406094  	99.096447 
3863.843001  	98.932374 
3865.279908  	99.103912 
3866.716815  	99.104735 
3868.153722  	99.112190 
3869.590629  	99.380222 
3871.027536  	99.311409 
3872.464443  	98.985258 
3873.901350  	98.857015 
3875.338257  	98.816501 
3876.775164  	98.973090 
3878.212071  	99.055329 
3879.648978  	99.000180 
3881.085885  	99.135292 
3882.522792  	99.366358 
3883.959699  	99.258256 
3885.396606  	99.052022 
3886.833513  	98.973149 
3888.270420  	99.054569 
3889.707327  	99.080885 
3891.144234  	99.053966 
3892.581141  	99.068690 
3894.018048  	99.111963 
3895.454955  	98.989615 
3896.891862  	98.864143 
3898.328769  	99.017637 
3899.765676  	99.209691 
3901.202583  	98.983395 
3902.639490  	98.792716 
3904.076397  	98.902382 
3905.513305  	99.024053 
3906.950212  	99.160402 
3908.387119  	99.271604 
3909.824026  	99.284372 
3911.260933  	99.272739 
3912.697840  	99.154000 
3914.134747  	99.016800 
3915.571654  	99.027947 
3917.008561  	98.998482 
3918.445468  	98.947806 
3919.882375  	98.985546 
3921.319282  	98.975996 
3922.756189  	98.933943 
3924.193096  	98.961154 
3925.630003  	98.954330 
3927.066910  	98.942969 
3928.503817  	98.998056 
3929.940724  	99.052488 
3931.377631  	99.055973 
3932.814538  	99.051572 
3934.251445  	99.003019 
3935.688352  	98.932214 
3937.125259  	98.949180 
3938.562166  	99.016672 
3939.999073  	98.983831 
3941.435980  	98.925245 
3942.872887  	98.901762 
3944.309794  	98.913602 
3945.746701  	99.005317 
3947.183608  	99.061782 
3948.620515  	99.020918 
3950.057422  	99.028953 
3951.494329  	99.075588 
3952.931236  	99.050245 
3954.368143  	99.039084 
3955.805051  	99.059567 
3957.241958  	99.043505 
3958.678865  	99.011002 
3960.115772  	99.030303 
3961.552679  	99.060070 
3962.989586  	99.044712 
3964.426493  	98.988407 
3965.863400  	98.940289 
3967.300307  	98.971703 
3968.737214  	99.034999 
3970.174121  	99.009482 
3971.611028  	98.984155 
3973.047935  	99.014369 
3974.484842  	99.004051 
3975.921749  	99.016128 
3977.358656  	99.051617 
3978.795563  	99.030702 
3980.232470  	99.042927 
3981.669377  	99.066344 
3983.106284  	99.037745 
3984.543191  	99.026569 
3985.980098  	99.017687 
3987.417005  	99.022633 
3988.853912  	99.050347 
3990.290819  	99.031001 
3991.727726  	99.030428 
3993.164633  	99.058451 
3994.601540  	99.046125 
3996.038447  	99.054604 
3997.475354  	99.082298 
3998.912261  	99.094376 
4000.349168  	99.100374 