##TITLE=No Description
##DATA TYPE=INFRARED SPECTRUM
##XUNITS=1/CM
##YUNITS=%T
399.460154  	32.950989 
400.897061  	32.083357 
402.333968  	32.117246 
403.770875  	30.937681 
405.207782  	31.034101 
406.644689  	31.620054 
408.081596  	31.322968 
409.518503  	31.700603 
410.955410  	31.782387 
412.392317  	31.641239 
413.829224  	31.486556 
415.266131  	31.347289 
416.703038  	31.717754 
418.139945  	31.746658 
419.576852  	31.861615 
421.013759  	32.029652 
422.450666  	30.806370 
423.887574  	30.473987 
425.324481  	31.414402 
426.761388  	31.558377 
428.198295  	31.457133 
429.635202  	31.413437 
431.072109  	31.371713 
432.509016  	31.384280 
433.945923  	30.868319 
435.382830  	30.817519 
436.819737  	31.275850 
438.256644  	31.323447 
439.693551  	31.902230 
441.130458  	32.143561 
442.567365  	31.309807 
444.004272  	31.224257 
445.441179  	31.674042 
446.878086  	32.144295 
448.314993  	32.100010 
449.751900  	31.469166 
451.188807  	31.706998 
452.625714  	31.994241 
454.062621  	31.441436 
455.499528  	31.271130 
456.936435  	31.311504 
458.373342  	31.739269 
459.810249  	32.161562 
461.247156  	31.755349 
462.684063  	31.544497 
464.120970  	31.494775 
465.557877  	31.154670 
466.994784  	31.437061 
468.431691  	31.785478 
469.868598  	31.735861 
471.305505  	31.778093 
472.742413  	31.443245 
474.179320  	31.459733 
475.616227  	31.631311 
477.053134  	31.452653 
478.490041  	31.780083 
479.926948  	32.154575 
481.363855  	32.051503 
482.800762  	32.122260 
484.237669  	31.880349 
485.674576  	31.458740 
487.111483  	31.548662 
488.548390  	31.568976 
489.985297  	31.549497 
491.422204  	31.811554 
492.859111  	32.042463 
494.296018  	32.141285 
495.732925  	32.245702 
497.169832  	32.364843 
498.606739  	32.260339 
500.043646  	31.985734 
501.480553  	31.833172 
502.917460  	31.900179 
504.354367  	32.074949 
505.791274  	32.251960 
507.228181  	32.369600 
508.665088  	32.496523 
510.101995  	32.631784 
511.538902  	32.757717 
512.975809  	32.680143 
514.412716  	32.397260 
515.849623  	32.362633 
517.286530  	32.466775 
518.723437  	32.425157 
520.160344  	32.604593 
521.597251  	32.818970 
523.034159  	32.937277 
524.471066  	33.093870 
525.907973  	32.968568 
527.344880  	32.841613 
528.781787  	32.998444 
530.218694  	33.051034 
531.655601  	33.001046 
533.092508  	32.936644 
534.529415  	32.986203 
535.966322  	33.233592 
537.403229  	33.405955 
538.840136  	33.588168 
540.277043  	33.675694 
541.713950  	33.532596 
543.150857  	33.618595 
544.587764  	33.721892 
546.024671  	33.648509 
547.461578  	33.819169 
548.898485  	33.928002 
550.335392  	33.920036 
551.772299  	34.130429 
553.209206  	34.272165 
554.646113  	34.275990 
556.083020  	34.242315 
557.519927  	34.318087 
558.956834  	34.577518 
560.393741  	34.577260 
561.830648  	34.493154 
563.267555  	34.723318 
564.704462  	34.854006 
566.141369  	34.887344 
567.578276  	35.040433 
569.015183  	35.131858 
570.452090  	35.193279 
571.888997  	35.244953 
573.325905  	35.327482 
574.762812  	35.476051 
576.199719  	35.550839 
577.636626  	35.680534 
579.073533  	35.823997 
580.510440  	35.860365 
581.947347  	35.993602 
583.384254  	36.124509 
584.821161  	36.218127 
586.258068  	36.379971 
587.694975  	36.449998 
589.131882  	36.560586 
590.568789  	36.730226 
592.005696  	36.756799 
593.442603  	36.833766 
594.879510  	36.971002 
596.316417  	37.113775 
597.753324  	37.297542 
599.190231  	37.326246 
600.627138  	37.372787 
602.064045  	37.572126 
603.500952  	37.687480 
604.937859  	37.817754 
606.374766  	37.960252 
607.811673  	38.092811 
609.248580  	38.256525 
610.685487  	38.346886 
612.122394  	38.373459 
613.559301  	38.563589 
614.996208  	38.696458 
616.433115  	38.793384 
617.870022  	38.932290 
619.306929  	39.047545 
620.743836  	39.204389 
622.180744  	39.328895 
623.617651  	39.468510 
625.054558  	39.693818 
626.491465  	39.823697 
627.928372  	39.942476 
629.365279  	40.101768 
630.802186  	40.200930 
632.239093  	40.347946 
633.676000  	40.497171 
635.112907  	40.614280 
636.549814  	40.746577 
637.986721  	40.876243 
639.423628  	41.053631 
640.860535  	41.249632 
642.297442  	41.396072 
643.734349  	41.535613 
645.171256  	41.674053 
646.608163  	41.800073 
648.045070  	42.003359 
649.481977  	42.182731 
650.918884  	42.317213 
652.355791  	42.487654 
653.792698  	42.648776 
655.229605  	42.856376 
656.666512  	43.057589 
658.103419  	43.155241 
659.540326  	43.293255 
660.977233  	43.468793 
662.414140  	43.620709 
663.851047  	43.810735 
665.287954  	43.929168 
666.724861  	44.038740 
668.161768  	44.295095 
669.598675  	44.542721 
671.035582  	44.671693 
672.472490  	44.844188 
673.909397  	45.020949 
675.346304  	45.185152 
676.783211  	45.371170 
678.220118  	45.535365 
679.657025  	45.692575 
681.093932  	45.914866 
682.530839  	46.120640 
683.967746  	46.297607 
685.404653  	46.481849 
686.841560  	46.639492 
688.278467  	46.837479 
689.715374  	47.073418 
691.152281  	47.252910 
692.589188  	47.429458 
694.026095  	47.628218 
695.463002  	47.803240 
696.899909  	47.993463 
698.336816  	48.183132 
699.773723  	48.390314 
701.210630  	48.639492 
702.647537  	48.831828 
704.084444  	49.032390 
705.521351  	49.247727 
706.958258  	49.381276 
708.395165  	49.577667 
709.832072  	49.824340 
711.268979  	50.007715 
712.705886  	50.219331 
714.142793  	50.456477 
715.579700  	50.676548 
717.016607  	50.874702 
718.453514  	51.036595 
719.890421  	51.302263 
721.327328  	51.606704 
722.764236  	51.767371 
724.201143  	51.934035 
725.638050  	52.171399 
727.074957  	52.416535 
728.511864  	52.664822 
729.948771  	52.839988 
731.385678  	53.019481 
732.822585  	53.264196 
734.259492  	53.468941 
735.696399  	53.708644 
737.133306  	53.972009 
738.570213  	54.140377 
740.007120  	54.328809 
741.444027  	54.564713 
742.880934  	54.777137 
744.317841  	55.017905 
745.754748  	55.261870 
747.191655  	55.483988 
748.628562  	55.725149 
750.065469  	55.963146 
751.502376  	56.170592 
752.939283  	56.366004 
754.376190  	56.597800 
755.813097  	56.857409 
757.250004  	57.092490 
758.686911  	57.334400 
760.123818  	57.585787 
761.560725  	57.794752 
762.997632  	57.994878 
764.434539  	58.232453 
765.871446  	58.481083 
767.308353  	58.700621 
768.745260  	58.920523 
770.182167  	59.184566 
771.619075  	59.457844 
773.055982  	59.719573 
774.492889  	59.963591 
775.929796  	60.181125 
777.366703  	60.414431 
778.803610  	60.662385 
780.240517  	60.932157 
781.677424  	61.225724 
783.114331  	61.438085 
784.551238  	61.614759 
785.988145  	61.852591 
787.425052  	62.089814 
788.861959  	62.352536 
790.298866  	62.621172 
791.735773  	62.821193 
793.172680  	63.077356 
794.609587  	63.377505 
796.046494  	63.610010 
797.483401  	63.848695 
798.920308  	64.094002 
800.357215  	64.329241 
801.794122  	64.600320 
803.231029  	64.845262 
804.667936  	65.070219 
806.104843  	65.344725 
807.541750  	65.626351 
808.978657  	65.853198 
810.415564  	66.043225 
811.852471  	66.288489 
813.289378  	66.605539 
814.726285  	66.916758 
816.163192  	67.191071 
817.600099  	67.412816 
819.037006  	67.627582 
820.473913  	67.890702 
821.910821  	68.145330 
823.347728  	68.387354 
824.784635  	68.631094 
826.221542  	68.859920 
827.658449  	69.140815 
829.095356  	69.443804 
830.532263  	69.686980 
831.969170  	69.920833 
833.406077  	70.159272 
834.842984  	70.393270 
836.279891  	70.646904 
837.716798  	70.894356 
839.153705  	71.138318 
840.590612  	71.382876 
842.027519  	71.612577 
843.464426  	71.878918 
844.901333  	72.186891 
846.338240  	72.457147 
847.775147  	72.675280 
849.212054  	72.896684 
850.648961  	73.132468 
852.085868  	73.378074 
853.522775  	73.655821 
854.959682  	73.924304 
856.396589  	74.158997 
857.833496  	74.412240 
859.270403  	74.649987 
860.707310  	74.862662 
862.144217  	75.125546 
863.581124  	75.399972 
865.018031  	75.633011 
866.454938  	75.859023 
867.891845  	76.096624 
869.328752  	76.313557 
870.765660  	76.487244 
872.202567  	76.705791 
873.639474  	76.989873 
875.076381  	77.222948 
876.513288  	77.434246 
877.950195  	77.671731 
879.387102  	77.898973 
880.824009  	78.149156 
882.260916  	78.383170 
883.697823  	78.588216 
885.134730  	78.828789 
886.571637  	79.036615 
888.008544  	79.220609 
889.445451  	79.431559 
890.882358  	79.609316 
892.319265  	79.792943 
893.756172  	79.993279 
895.193079  	80.178307 
896.629986  	80.394953 
898.066893  	80.591463 
899.503800  	80.757930 
900.940707  	80.944977 
902.377614  	81.112097 
903.814521  	81.291833 
905.251428  	81.488696 
906.688335  	81.657435 
908.125242  	81.839174 
909.562149  	82.006299 
910.999056  	82.154296 
912.435963  	82.316294 
913.872870  	82.453956 
915.309777  	82.626879 
916.746684  	82.847216 
918.183591  	83.027611 
919.620498  	83.173539 
921.057406  	83.279969 
922.494313  	83.397640 
923.931220  	83.582460 
925.368127  	83.747303 
926.805034  	83.897853 
928.241941  	84.066674 
929.678848  	84.217422 
931.115755  	84.361385 
932.552662  	84.467651 
933.989569  	84.584388 
935.426476  	84.751247 
936.863383  	84.839803 
938.300290  	84.904034 
939.737197  	85.043718 
941.174104  	85.179912 
942.611011  	85.305867 
944.047918  	85.419241 
945.484825  	85.529494 
946.921732  	85.667135 
948.358639  	85.747707 
949.795546  	85.820134 
951.232453  	85.955252 
952.669360  	86.066252 
954.106267  	86.169024 
955.543174  	86.269244 
956.980081  	86.350513 
958.416988  	86.472309 
959.853895  	86.570577 
961.290802  	86.639466 
962.727709  	86.749767 
964.164616  	86.838102 
965.601523  	86.902629 
967.038430  	86.973698 
968.475337  	87.041663 
969.912244  	87.140503 
971.349152  	87.235123 
972.786059  	87.298793 
974.222966  	87.355856 
975.659873  	87.415567 
977.096780  	87.506747 
978.533687  	87.574837 
979.970594  	87.615917 
981.407501  	87.720128 
982.844408  	87.816389 
984.281315  	87.865473 
985.718222  	87.917276 
987.155129  	87.945049 
988.592036  	87.986094 
990.028943  	88.048322 
991.465850  	88.096711 
992.902757  	88.163292 
994.339664  	88.206894 
995.776571  	88.233481 
997.213478  	88.279284 
998.650385  	88.284400 
1000.087292  	88.292959 
1001.524199  	88.320597 
1002.961106  	88.322533 
1004.398013  	88.366442 
1005.834920  	88.414256 
1007.271827  	88.421940 
1008.708734  	88.458948 
1010.145641  	88.492764 
1011.582548  	88.524820 
1013.019455  	88.582280 
1014.456362  	88.617250 
1015.893269  	88.659359 
1017.330176  	88.710090 
1018.767083  	88.741706 
1020.203991  	88.774835 
1021.640898  	88.794204 
1023.077805  	88.845484 
1024.514712  	88.925847 
1025.951619  	88.931786 
1027.388526  	88.903235 
1028.825433  	88.901072 
1030.262340  	88.901247 
1031.699247  	88.881026 
1033.136154  	88.834804 
1034.573061  	88.826724 
1036.009968  	88.841119 
1037.446875  	88.816577 
1038.883782  	88.831922 
1040.320689  	88.882185 
1041.757596  	88.912522 
1043.194503  	88.952056 
1044.631410  	88.973438 
1046.068317  	89.030927 
1047.505224  	89.157009 
1048.942131  	89.219472 
1050.379038  	89.236358 
1051.815945  	89.283884 
1053.252852  	89.342930 
1054.689759  	89.416844 
1056.126666  	89.471693 
1057.563573  	89.505269 
1059.000480  	89.539524 
1060.437387  	89.561140 
1061.874294  	89.607067 
1063.311201  	89.643890 
1064.748108  	89.649155 
1066.185015  	89.675300 
1067.621922  	89.691209 
1069.058829  	89.731482 
1070.495737  	89.789181 
1071.932644  	89.759259 
1073.369551  	89.727425 
1074.806458  	89.724886 
1076.243365  	89.710585 
1077.680272  	89.760416 
1079.117179  	89.801971 
1080.554086  	89.786749 
1081.990993  	89.782935 
1083.427900  	89.751538 
1084.864807  	89.731759 
1086.301714  	89.744759 
1087.738621  	89.736333 
1089.175528  	89.749553 
1090.612435  	89.744227 
1092.049342  	89.720924 
1093.486249  	89.750631 
1094.923156  	89.753575 
1096.360063  	89.749574 
1097.796970  	89.780126 
1099.233877  	89.774683 
1100.670784  	89.786399 
1102.107691  	89.818389 
1103.544598  	89.823718 
1104.981505  	89.852674 
1106.418412  	89.887362 
1107.855319  	89.912346 
1109.292226  	89.915490 
1110.729133  	89.888817 
1112.166040  	89.909425 
1113.602947  	89.931425 
1115.039854  	89.926184 
1116.476761  	89.968073 
1117.913668  	89.999485 
1119.350575  	90.021256 
1120.787483  	90.058537 
1122.224390  	90.053277 
1123.661297  	90.063109 
1125.098204  	90.085011 
1126.535111  	90.096125 
1127.972018  	90.149013 
1129.408925  	90.161185 
1130.845832  	90.149077 
1132.282739  	90.172775 
1133.719646  	90.144360 
1135.156553  	90.133609 
1136.593460  	90.171973 
1138.030367  	90.159738 
1139.467274  	90.155838 
1140.904181  	90.170456 
1142.341088  	90.174559 
1143.777995  	90.192699 
1145.214902  	90.173330 
1146.651809  	90.154349 
1148.088716  	90.166652 
1149.525623  	90.153493 
1150.962530  	90.153283 
1152.399437  	90.158993 
1153.836344  	90.155354 
1155.273251  	90.165873 
1156.710158  	90.132640 
1158.147065  	90.097854 
1159.583972  	90.108611 
1161.020879  	90.111826 
1162.457786  	90.116453 
1163.894693  	90.092675 
1165.331600  	90.073796 
1166.768507  	90.132775 
1168.205414  	90.144069 
1169.642322  	90.100978 
1171.079229  	90.102573 
1172.516136  	90.097454 
1173.953043  	90.100713 
1175.389950  	90.117352 
1176.826857  	90.103272 
1178.263764  	90.107210 
1179.700671  	90.102538 
1181.137578  	90.082682 
1182.574485  	90.095756 
1184.011392  	90.094221 
1185.448299  	90.089556 
1186.885206  	90.091717 
1188.322113  	90.073218 
1189.759020  	90.079763 
1191.195927  	90.080180 
1192.632834  	90.057250 
1194.069741  	90.055351 
1195.506648  	90.046126 
1196.943555  	90.059824 
1198.380462  	90.087096 
1199.817369  	90.054041 
1201.254276  	90.027184 
1202.691183  	90.025401 
1204.128090  	90.015204 
1205.564997  	90.030298 
1207.001904  	90.027126 
1208.438811  	89.997467 
1209.875718  	89.991641 
1211.312625  	89.991057 
1212.749532  	89.997988 
1214.186439  	90.002346 
1215.623346  	89.991570 
1217.060253  	89.996321 
1218.497160  	90.003165 
1219.934068  	90.013970 
1221.370975  	90.015381 
1222.807882  	89.978322 
1224.244789  	89.971627 
1225.681696  	89.996917 
1227.118603  	89.994121 
1228.555510  	89.987236 
1229.992417  	89.980255 
1231.429324  	89.982971 
1232.866231  	90.006903 
1234.303138  	90.013866 
1235.740045  	90.010736 
1237.176952  	89.991170 
1238.613859  	89.957950 
1240.050766  	89.960540 
1241.487673  	89.967011 
1242.924580  	89.959070 
1244.361487  	89.952510 
1245.798394  	89.922242 
1247.235301  	89.908330 
1248.672208  	89.923714 
1250.109115  	89.921815 
1251.546022  	89.920502 
1252.982929  	89.915016 
1254.419836  	89.897180 
1255.856743  	89.894333 
1257.293650  	89.888091 
1258.730557  	89.878055 
1260.167464  	89.880548 
1261.604371  	89.885429 
1263.041278  	89.885589 
1264.478185  	89.869055 
1265.915092  	89.853919 
1267.351999  	89.852064 
1268.788907  	89.844250 
1270.225814  	89.839293 
1271.662721  	89.827661 
1273.099628  	89.817240 
1274.536535  	89.827462 
1275.973442  	89.813715 
1277.410349  	89.785257 
1278.847256  	89.772444 
1280.284163  	89.766320 
1281.721070  	89.788097 
1283.157977  	89.801644 
1284.594884  	89.794022 
1286.031791  	89.813480 
1287.468698  	89.818277 
1288.905605  	89.820465 
1290.342512  	89.851325 
1291.779419  	89.852336 
1293.216326  	89.855663 
1294.653233  	89.868229 
1296.090140  	89.858566 
1297.527047  	89.877750 
1298.963954  	89.892047 
1300.400861  	89.894189 
1301.837768  	89.895830 
1303.274675  	89.915508 
1304.711582  	89.910709 
1306.148489  	89.921073 
1307.585396  	89.913939 
1309.022303  	89.925213 
1310.459210  	89.951208 
1311.896117  	89.943537 
1313.333024  	89.925112 
1314.769931  	89.914097 
1316.206838  	89.922484 
1317.643745  	89.943025 
1319.080653  	89.932209 
1320.517560  	89.938777 
1321.954467  	89.954309 
1323.391374  	89.944141 
1324.828281  	89.950770 
1326.265188  	89.939113 
1327.702095  	89.897988 
1329.139002  	89.900314 
1330.575909  	89.901151 
1332.012816  	89.907848 
1333.449723  	89.919408 
1334.886630  	89.899180 
1336.323537  	89.873606 
1337.760444  	89.838984 
1339.197351  	89.800446 
1340.634258  	89.812832 
1342.071165  	89.846842 
1343.508072  	89.856191 
1344.944979  	89.846938 
1346.381886  	89.835733 
1347.818793  	89.837315 
1349.255700  	89.815485 
1350.692607  	89.775294 
1352.129514  	89.756616 
1353.566421  	89.741751 
1355.003328  	89.722682 
1356.440235  	89.715078 
1357.877142  	89.675554 
1359.314049  	89.651373 
1360.750956  	89.613624 
1362.187863  	89.540388 
1363.624770  	89.526391 
1365.061677  	89.557029 
1366.498584  	89.585218 
1367.935491  	89.562424 
1369.372399  	89.458615 
1370.809306  	89.394530 
1372.246213  	89.381285 
1373.683120  	89.327295 
1375.120027  	89.264097 
1376.556934  	89.222473 
1377.993841  	89.186604 
1379.430748  	89.159136 
1380.867655  	89.103724 
1382.304562  	89.040193 
1383.741469  	89.026661 
1385.178376  	89.014629 
1386.615283  	89.014627 
1388.052190  	89.029230 
1389.489097  	89.043109 
1390.926004  	89.083503 
1392.362911  	89.087583 
1393.799818  	89.052406 
1395.236725  	89.028907 
1396.673632  	89.099222 
1398.110539  	89.195510 
1399.547446  	89.223459 
1400.984353  	89.210087 
1402.421260  	89.229657 
1403.858167  	89.238892 
1405.295074  	89.239965 
1406.731981  	89.295155 
1408.168888  	89.364909 
1409.605795  	89.431254 
1411.042702  	89.443668 
1412.479609  	89.373345 
1413.916516  	89.335157 
1415.353423  	89.360772 
1416.790330  	89.426389 
1418.227238  	89.469205 
1419.664145  	89.471944 
1421.101052  	89.536678 
1422.537959  	89.531081 
1423.974866  	89.432744 
1425.411773  	89.446541 
1426.848680  	89.553269 
1428.285587  	89.630395 
1429.722494  	89.667923 
1431.159401  	89.577080 
1432.596308  	89.515340 
1434.033215  	89.557054 
1435.470122  	89.592034 
1436.907029  	89.616485 
1438.343936  	89.590190 
1439.780843  	89.574078 
1441.217750  	89.587658 
1442.654657  	89.565606 
1444.091564  	89.564735 
1445.528471  	89.567125 
1446.965378  	89.531591 
1448.402285  	89.517076 
1449.839192  	89.536119 
1451.276099  	89.553483 
1452.713006  	89.533431 
1454.149913  	89.468189 
1455.586820  	89.414612 
1457.023727  	89.406506 
1458.460634  	89.430899 
1459.897541  	89.482534 
1461.334448  	89.493747 
1462.771355  	89.434354 
1464.208262  	89.345164 
1465.645169  	89.284803 
1467.082076  	89.336968 
1468.518984  	89.414911 
1469.955891  	89.433424 
1471.392798  	89.377583 
1472.829705  	89.223404 
1474.266612  	89.162940 
1475.703519  	89.201642 
1477.140426  	89.221817 
1478.577333  	89.264762 
1480.014240  	89.275747 
1481.451147  	89.215332 
1482.888054  	89.143681 
1484.324961  	89.079457 
1485.761868  	89.032056 
1487.198775  	89.093347 
1488.635682  	89.123684 
1490.072589  	89.062276 
1491.509496  	89.009600 
1492.946403  	88.947912 
1494.383310  	88.910304 
1495.820217  	88.864101 
1497.257124  	88.838826 
1498.694031  	88.868417 
1500.130938  	88.836914 
1501.567845  	88.759335 
1503.004752  	88.696927 
1504.441659  	88.634565 
1505.878566  	88.579667 
1507.315473  	88.415009 
1508.752380  	88.355199 
1510.189287  	88.445647 
1511.626194  	88.472784 
1513.063101  	88.467539 
1514.500008  	88.398197 
1515.936915  	88.159532 
1517.373822  	88.020763 
1518.810730  	88.143642 
1520.247637  	88.194793 
1521.684544  	88.263887 
1523.121451  	88.092441 
1524.558358  	87.901846 
1525.995265  	87.790053 
1527.432172  	87.690446 
1528.869079  	87.708604 
1530.305986  	87.808384 
1531.742893  	87.798049 
1533.179800  	87.600756 
1534.616707  	87.179924 
1536.053614  	87.060129 
1537.490521  	87.170055 
1538.927428  	87.291907 
1540.364335  	87.192688 
1541.801242  	86.939498 
1543.238149  	86.665846 
1544.675056  	86.520177 
1546.111963  	86.411686 
1547.548870  	86.328262 
1548.985777  	86.256247 
1550.422684  	86.108015 
1551.859591  	85.934655 
1553.296498  	85.788311 
1554.733405  	85.592836 
1556.170312  	85.524584 
1557.607219  	85.448070 
1559.044126  	85.068696 
1560.481033  	84.951262 
1561.917940  	84.914854 
1563.354847  	84.809898 
1564.791754  	84.678292 
1566.228661  	84.408657 
1567.665569  	84.299836 
1569.102476  	84.247330 
1570.539383  	83.969141 
1571.976290  	83.835383 
1573.413197  	83.724672 
1574.850104  	83.554678 
1576.287011  	83.387657 
1577.723918  	83.116255 
1579.160825  	82.969513 
1580.597732  	82.853100 
1582.034639  	82.649121 
1583.471546  	82.466103 
1584.908453  	82.220246 
1586.345360  	81.941084 
1587.782267  	81.786838 
1589.219174  	81.499697 
1590.656081  	81.231951 
1592.092988  	81.016678 
1593.529895  	80.651508 
1594.966802  	80.321128 
1596.403709  	80.019364 
1597.840616  	79.668541 
1599.277523  	79.398814 
1600.714430  	78.952210 
1602.151337  	78.469973 
1603.588244  	78.039501 
1605.025151  	77.545925 
1606.462058  	77.114433 
1607.898965  	76.703402 
1609.335872  	76.180597 
1610.772779  	75.684831 
1612.209686  	75.138267 
1613.646593  	74.618293 
1615.083500  	74.322512 
1616.520407  	73.798797 
1617.957315  	73.266033 
1619.394222  	72.839533 
1620.831129  	72.243070 
1622.268036  	71.802444 
1623.704943  	71.400495 
1625.141850  	71.040890 
1626.578757  	70.903793 
1628.015664  	70.560008 
1629.452571  	70.178869 
1630.889478  	69.992428 
1632.326385  	69.795867 
1633.763292  	69.757671 
1635.200199  	69.681686 
1636.637106  	69.542847 
1638.074013  	69.785676 
1639.510920  	69.823641 
1640.947827  	69.861418 
1642.384734  	69.963910 
1643.821641  	69.949075 
1645.258548  	70.187360 
1646.695455  	70.707532 
1648.132362  	71.111410 
1649.569269  	71.466788 
1651.006176  	71.550255 
1652.443083  	71.544913 
1653.879990  	72.843910 
1655.316897  	73.127022 
1656.753804  	73.325201 
1658.190711  	73.727811 
1659.627618  	73.995122 
1661.064525  	74.352115 
1662.501432  	74.866509 
1663.938339  	75.369820 
1665.375246  	75.840146 
1666.812154  	76.195866 
1668.249061  	76.655030 
1669.685968  	77.302036 
1671.122875  	77.661201 
1672.559782  	78.043444 
1673.996689  	78.413094 
1675.433596  	78.925006 
1676.870503  	79.804557 
1678.307410  	80.186908 
1679.744317  	80.545617 
1681.181224  	80.997346 
1682.618131  	81.235219 
1684.055038  	81.574293 
1685.491945  	82.543481 
1686.928852  	82.906568 
1688.365759  	83.283934 
1689.802666  	83.648294 
1691.239573  	83.941531 
1692.676480  	84.403133 
1694.113387  	84.739416 
1695.550294  	85.037245 
1696.987201  	85.535729 
1698.424108  	85.803857 
1699.861015  	86.111830 
1701.297922  	86.541069 
1702.734829  	86.729139 
1704.171736  	87.035187 
1705.608643  	87.387986 
1707.045550  	87.708301 
1708.482457  	88.052819 
1709.919364  	88.344593 
1711.356271  	88.623691 
1712.793178  	88.895984 
1714.230085  	89.100185 
1715.666992  	89.401590 
1717.103900  	89.717011 
1718.540807  	89.986951 
1719.977714  	90.329768 
1721.414621  	90.563566 
1722.851528  	90.781422 
1724.288435  	91.022064 
1725.725342  	91.244046 
1727.162249  	91.544153 
1728.599156  	91.715931 
1730.036063  	91.804284 
1731.472970  	91.992250 
1732.909877  	92.162321 
1734.346784  	92.213071 
1735.783691  	92.308231 
1737.220598  	92.427417 
1738.657505  	92.583040 
1740.094412  	92.768422 
1741.531319  	92.872945 
1742.968226  	93.016683 
1744.405133  	93.109829 
1745.842040  	93.168468 
1747.278947  	93.274864 
1748.715854  	93.398575 
1750.152761  	93.567647 
1751.589668  	93.699405 
1753.026575  	93.767126 
1754.463482  	93.923627 
1755.900389  	93.984155 
1757.337296  	93.962497 
1758.774203  	94.066229 
1760.211110  	94.145384 
1761.648017  	94.213238 
1763.084924  	94.308542 
1764.521831  	94.376512 
1765.958738  	94.474241 
1767.395646  	94.471605 
1768.832553  	94.420294 
1770.269460  	94.537319 
1771.706367  	94.676216 
1773.143274  	94.787404 
1774.580181  	94.818811 
1776.017088  	94.770844 
1777.453995  	94.787456 
1778.890902  	94.821523 
1780.327809  	94.818276 
1781.764716  	94.933239 
1783.201623  	95.025723 
1784.638530  	95.056824 
1786.075437  	95.083646 
1787.512344  	95.053869 
1788.949251  	95.043576 
1790.386158  	95.097537 
1791.823065  	95.099871 
1793.259972  	95.166094 
1794.696879  	95.235282 
1796.133786  	95.311778 
1797.570693  	95.386536 
1799.007600  	95.327439 
1800.444507  	95.287753 
1801.881414  	95.350851 
1803.318321  	95.444783 
1804.755228  	95.562965 
1806.192135  	95.551423 
1807.629042  	95.511229 
1809.065949  	95.533160 
1810.502856  	95.484256 
1811.939763  	95.491201 
1813.376670  	95.595411 
1814.813577  	95.684648 
1816.250485  	95.759928 
1817.687392  	95.726236 
1819.124299  	95.631236 
1820.561206  	95.622273 
1821.998113  	95.628225 
1823.435020  	95.721441 
1824.871927  	95.803400 
1826.308834  	95.736600 
1827.745741  	95.760723 
1829.182648  	95.757760 
1830.619555  	95.682372 
1832.056462  	95.744331 
1833.493369  	95.791702 
1834.930276  	95.829306 
1836.367183  	95.854083 
1837.804090  	95.793128 
1839.240997  	95.781762 
1840.677904  	95.838737 
1842.114811  	95.878673 
1843.551718  	95.914871 
1844.988625  	95.858630 
1846.425532  	95.864259 
1847.862439  	95.933904 
1849.299346  	95.920452 
1850.736253  	95.915910 
1852.173160  	95.923782 
1853.610067  	95.886178 
1855.046974  	95.935125 
1856.483881  	95.928106 
1857.920788  	95.906090 
1859.357695  	95.958281 
1860.794602  	95.973776 
1862.231509  	96.026547 
1863.668416  	95.990420 
1865.105323  	95.890764 
1866.542231  	95.989713 
1867.979138  	96.056295 
1869.416045  	95.973489 
1870.852952  	95.978378 
1872.289859  	95.955042 
1873.726766  	95.973594 
1875.163673  	96.018522 
1876.600580  	95.955471 
1878.037487  	95.992959 
1879.474394  	96.023011 
1880.911301  	96.001592 
1882.348208  	96.023385 
1883.785115  	95.979071 
1885.222022  	95.968318 
1886.658929  	95.995693 
1888.095836  	95.987137 
1889.532743  	96.040239 
1890.969650  	96.021732 
1892.406557  	95.999360 
1893.843464  	96.078916 
1895.280371  	96.025978 
1896.717278  	95.979945 
1898.154185  	96.043489 
1899.591092  	96.022649 
1901.027999  	96.099570 
1902.464906  	96.145997 
1903.901813  	96.046256 
1905.338720  	96.054314 
1906.775627  	95.973922 
1908.212534  	95.957503 
1909.649441  	96.134866 
1911.086348  	96.108921 
1912.523255  	96.067408 
1913.960162  	96.035426 
1915.397069  	95.915239 
1916.833977  	95.939278 
1918.270884  	95.953445 
1919.707791  	96.053804 
1921.144698  	96.230655 
1922.581605  	96.207695 
1924.018512  	96.195632 
1925.455419  	96.196280 
1926.892326  	96.108541 
1928.329233  	96.086475 
1929.766140  	96.015077 
1931.203047  	95.962705 
1932.639954  	96.128278 
1934.076861  	95.958111 
1935.513768  	95.825492 
1936.950675  	95.939796 
1938.387582  	95.941245 
1939.824489  	96.127905 
1941.261396  	96.184283 
1942.698303  	95.911377 
1944.135210  	95.935171 
1945.572117  	95.947093 
1947.009024  	95.823615 
1948.445931  	95.757432 
1949.882838  	95.756507 
1951.319745  	95.859429 
1952.756652  	95.898078 
1954.193559  	95.838348 
1955.630466  	95.845767 
1957.067373  	95.830694 
1958.504280  	95.844360 
1959.941187  	95.895784 
1961.378094  	95.886382 
1962.815001  	96.012143 
1964.251908  	96.001044 
1965.688816  	95.809022 
1967.125723  	95.791738 
1968.562630  	95.795360 
1969.999537  	95.863213 
1971.436444  	95.977440 
1972.873351  	95.847178 
1974.310258  	95.870359 
1975.747165  	95.925300 
1977.184072  	95.733393 
1978.620979  	95.684066 
1980.057886  	95.722473 
1981.494793  	95.698515 
1982.931700  	95.684127 
1984.368607  	95.629840 
1985.805514  	95.641518 
1987.242421  	95.625712 
1988.679328  	95.561407 
1990.116235  	95.561500 
1991.553142  	95.451221 
1992.990049  	95.382941 
1994.426956  	95.399101 
1995.863863  	95.315722 
1997.300770  	95.447267 
1998.737677  	95.567994 
2000.174584  	95.454051 
2001.611491  	95.655179 
2003.048398  	95.628361 
2004.485305  	95.495144 
2005.922212  	95.738502 
2007.359119  	95.614608 
2008.796026  	95.407580 
2010.232933  	95.393857 
2011.669840  	95.282553 
2013.106747  	95.489441 
2014.543654  	95.587161 
2015.980562  	95.392433 
2017.417469  	95.384101 
2018.854376  	95.340656 
2020.291283  	95.426844 
2021.728190  	95.376146 
2023.165097  	94.944854 
2024.602004  	95.000999 
2026.038911  	95.311851 
2027.475818  	95.357820 
2028.912725  	95.321693 
2030.349632  	95.092587 
2031.786539  	95.152073 
2033.223446  	95.332222 
2034.660353  	95.176424 
2036.097260  	95.296531 
2037.534167  	95.367754 
2038.971074  	95.217947 
2040.407981  	95.174804 
2041.844888  	95.006109 
2043.281795  	95.126360 
2044.718702  	95.369152 
2046.155609  	95.220123 
2047.592516  	95.236031 
2049.029423  	95.047769 
2050.466330  	94.630582 
2051.903237  	94.759749 
2053.340144  	94.849526 
2054.777051  	94.689832 
2056.213958  	94.769680 
2057.650865  	94.827247 
2059.087772  	94.822609 
2060.524679  	94.819132 
2061.961586  	94.729764 
2063.398493  	94.760113 
2064.835401  	94.783935 
2066.272308  	94.765439 
2067.709215  	94.824627 
2069.146122  	94.800825 
2070.583029  	94.805265 
2072.019936  	94.765625 
2073.456843  	94.577041 
2074.893750  	94.530384 
2076.330657  	94.543197 
2077.767564  	94.551072 
2079.204471  	94.630131 
2080.641378  	94.534884 
2082.078285  	94.426282 
2083.515192  	94.455849 
2084.952099  	94.416413 
2086.389006  	94.429010 
2087.825913  	94.512198 
2089.262820  	94.530359 
2090.699727  	94.549583 
2092.136634  	94.524202 
2093.573541  	94.488839 
2095.010448  	94.465616 
2096.447355  	94.382622 
2097.884262  	94.382862 
2099.321169  	94.433977 
2100.758076  	94.377172 
2102.194983  	94.287762 
2103.631890  	94.310943 
2105.068797  	94.492581 
2106.505704  	94.581970 
2107.942611  	94.483465 
2109.379518  	94.447349 
2110.816425  	94.398440 
2112.253332  	94.330765 
2113.690239  	94.364013 
2115.127147  	94.313936 
2116.564054  	94.272763 
2118.000961  	94.339200 
2119.437868  	94.312733 
2120.874775  	94.270521 
2122.311682  	94.280405 
2123.748589  	94.326381 
2125.185496  	94.420616 
2126.622403  	94.381463 
2128.059310  	94.341030 
2129.496217  	94.447292 
2130.933124  	94.508280 
2132.370031  	94.622854 
2133.806938  	94.707669 
2135.243845  	94.524701 
2136.680752  	94.392333 
2138.117659  	94.484414 
2139.554566  	94.660139 
2140.991473  	94.715954 
2142.428380  	94.575294 
2143.865287  	94.552631 
2145.302194  	94.558907 
2146.739101  	94.537524 
2148.176008  	94.761966 
2149.612915  	94.865759 
2151.049822  	94.771335 
2152.486729  	94.678061 
2153.923636  	94.551320 
2155.360543  	94.864587 
2156.797450  	95.460669 
2158.234357  	95.604401 
2159.671264  	95.187806 
2161.108171  	94.421499 
2162.545078  	94.306439 
2163.981985  	94.569769 
2165.418893  	94.306478 
2166.855800  	94.343679 
2168.292707  	94.767109 
2169.729614  	94.823116 
2171.166521  	94.895800 
2172.603428  	94.830981 
2174.040335  	94.595360 
2175.477242  	94.645947 
2176.914149  	94.633804 
2178.351056  	94.679218 
2179.787963  	94.969040 
2181.224870  	95.041527 
2182.661777  	95.030699 
2184.098684  	94.998526 
2185.535591  	94.953397 
2186.972498  	94.962467 
2188.409405  	94.840029 
2189.846312  	94.866238 
2191.283219  	94.964615 
2192.720126  	94.921570 
2194.157033  	95.094639 
2195.593940  	95.104734 
2197.030847  	94.919377 
2198.467754  	95.021776 
2199.904661  	94.973860 
2201.341568  	94.952878 
2202.778475  	95.233050 
2204.215382  	95.181125 
2205.652289  	95.037267 
2207.089196  	95.045118 
2208.526103  	94.970983 
2209.963010  	95.076730 
2211.399917  	95.143018 
2212.836824  	94.997433 
2214.273732  	94.974111 
2215.710639  	94.961167 
2217.147546  	95.014164 
2218.584453  	95.171284 
2220.021360  	95.153663 
2221.458267  	95.185123 
2222.895174  	95.317290 
2224.332081  	95.343771 
2225.768988  	95.353815 
2227.205895  	95.331696 
2228.642802  	95.323931 
2230.079709  	95.385426 
2231.516616  	95.409328 
2232.953523  	95.451073 
2234.390430  	95.501697 
2235.827337  	95.487259 
2237.264244  	95.417573 
2238.701151  	95.331864 
2240.138058  	95.350840 
2241.574965  	95.425302 
2243.011872  	95.475457 
2244.448779  	95.552136 
2245.885686  	95.608187 
2247.322593  	95.669308 
2248.759500  	95.674905 
2250.196407  	95.584395 
2251.633314  	95.654459 
2253.070221  	95.769694 
2254.507128  	95.714318 
2255.944035  	95.625181 
2257.380942  	95.549156 
2258.817849  	95.561612 
2260.254756  	95.637843 
2261.691663  	95.576961 
2263.128570  	95.562636 
2264.565478  	95.703550 
2266.002385  	95.786155 
2267.439292  	95.794842 
2268.876199  	95.763566 
2270.313106  	95.762575 
2271.750013  	95.834464 
2273.186920  	95.802274 
2274.623827  	95.766625 
2276.060734  	95.796050 
2277.497641  	95.762461 
2278.934548  	95.796233 
2280.371455  	95.869109 
2281.808362  	95.811082 
2283.245269  	95.744351 
2284.682176  	95.732182 
2286.119083  	95.750631 
2287.555990  	95.794151 
2288.992897  	95.805359 
2290.429804  	95.824830 
2291.866711  	95.854937 
2293.303618  	95.877679 
2294.740525  	95.897174 
2296.177432  	95.942871 
2297.614339  	95.955527 
2299.051246  	95.957919 
2300.488153  	95.988394 
2301.925060  	95.984255 
2303.361967  	95.984010 
2304.798874  	95.931864 
2306.235781  	95.892468 
2307.672688  	95.870287 
2309.109595  	95.863147 
2310.546502  	95.903695 
2311.983409  	95.947717 
2313.420317  	95.994207 
2314.857224  	96.030572 
2316.294131  	96.037652 
2317.731038  	96.022956 
2319.167945  	95.931748 
2320.604852  	95.863786 
2322.041759  	95.883133 
2323.478666  	95.855301 
2324.915573  	95.870606 
2326.352480  	95.956411 
2327.789387  	95.944542 
2329.226294  	95.907926 
2330.663201  	95.950037 
2332.100108  	96.017109 
2333.537015  	96.097126 
2334.973922  	96.153101 
2336.410829  	96.151578 
2337.847736  	96.108383 
2339.284643  	96.090295 
2340.721550  	96.148870 
2342.158457  	96.215940 
2343.595364  	96.304390 
2345.032271  	96.393654 
2346.469178  	96.360767 
2347.906085  	96.324980 
2349.342992  	96.325664 
2350.779899  	96.304899 
2352.216806  	96.329055 
2353.653713  	96.345228 
2355.090620  	96.308448 
2356.527527  	96.369448 
2357.964434  	96.437234 
2359.401341  	96.431353 
2360.838248  	96.475671 
2362.275155  	96.535406 
2363.712063  	96.554377 
2365.148970  	96.524208 
2366.585877  	96.575978 
2368.022784  	96.753811 
2369.459691  	96.786200 
2370.896598  	96.708638 
2372.333505  	96.691914 
2373.770412  	96.660056 
2375.207319  	96.660450 
2376.644226  	96.701456 
2378.081133  	96.700102 
2379.518040  	96.688027 
2380.954947  	96.658755 
2382.391854  	96.637063 
2383.828761  	96.686837 
2385.265668  	96.762630 
2386.702575  	96.811074 
2388.139482  	96.816563 
2389.576389  	96.807385 
2391.013296  	96.820453 
2392.450203  	96.819487 
2393.887110  	96.830802 
2395.324017  	96.870378 
2396.760924  	96.857958 
2398.197831  	96.842196 
2399.634738  	96.882170 
2401.071645  	96.925269 
2402.508552  	96.937644 
2403.945459  	96.907349 
2405.382366  	96.894251 
2406.819273  	96.915690 
2408.256180  	96.912103 
2409.693087  	96.928414 
2411.129994  	96.943984 
2412.566901  	96.919539 
2414.003809  	96.922798 
2415.440716  	96.915377 
2416.877623  	96.908431 
2418.314530  	96.938481 
2419.751437  	96.927385 
2421.188344  	96.960095 
2422.625251  	97.042316 
2424.062158  	97.031291 
2425.499065  	97.016688 
2426.935972  	97.027722 
2428.372879  	97.008738 
2429.809786  	97.043325 
2431.246693  	97.111111 
2432.683600  	97.161781 
2434.120507  	97.167829 
2435.557414  	97.100494 
2436.994321  	97.074301 
2438.431228  	97.104614 
2439.868135  	97.129916 
2441.305042  	97.173222 
2442.741949  	97.179157 
2444.178856  	97.172523 
2445.615763  	97.197925 
2447.052670  	97.180688 
2448.489577  	97.163304 
2449.926484  	97.156891 
2451.363391  	97.132255 
2452.800298  	97.146894 
2454.237205  	97.148852 
2455.674112  	97.159670 
2457.111019  	97.227820 
2458.547926  	97.223008 
2459.984833  	97.186311 
2461.421740  	97.202016 
2462.858648  	97.200461 
2464.295555  	97.211261 
2465.732462  	97.240136 
2467.169369  	97.259356 
2468.606276  	97.285201 
2470.043183  	97.261476 
2471.480090  	97.229097 
2472.916997  	97.242373 
2474.353904  	97.256108 
2475.790811  	97.301934 
2477.227718  	97.343879 
2478.664625  	97.333203 
2480.101532  	97.338637 
2481.538439  	97.333663 
2482.975346  	97.303763 
2484.412253  	97.297651 
2485.849160  	97.303733 
2487.286067  	97.333386 
2488.722974  	97.361239 
2490.159881  	97.366845 
2491.596788  	97.377833 
2493.033695  	97.339941 
2494.470602  	97.290437 
2495.907509  	97.319672 
2497.344416  	97.364878 
2498.781323  	97.375043 
2500.218230  	97.362635 
2501.655137  	97.368396 
2503.092044  	97.405965 
2504.528951  	97.397045 
2505.965858  	97.391553 
2507.402765  	97.456568 
2508.839672  	97.484792 
2510.276579  	97.470471 
2511.713486  	97.466385 
2513.150394  	97.458907 
2514.587301  	97.476528 
2516.024208  	97.490661 
2517.461115  	97.482921 
2518.898022  	97.514007 
2520.334929  	97.551905 
2521.771836  	97.542082 
2523.208743  	97.502957 
2524.645650  	97.491986 
2526.082557  	97.529325 
2527.519464  	97.535279 
2528.956371  	97.501710 
2530.393278  	97.491623 
2531.830185  	97.488656 
2533.267092  	97.499980 
2534.703999  	97.522879 
2536.140906  	97.519403 
2537.577813  	97.542459 
2539.014720  	97.591663 
2540.451627  	97.586939 
2541.888534  	97.553857 
2543.325441  	97.548903 
2544.762348  	97.554664 
2546.199255  	97.557112 
2547.636162  	97.568376 
2549.073069  	97.569205 
2550.509976  	97.575703 
2551.946883  	97.627927 
2553.383790  	97.631798 
2554.820697  	97.554188 
2556.257604  	97.532446 
2557.694511  	97.568124 
2559.131418  	97.612828 
2560.568325  	97.673465 
2562.005232  	97.649002 
2563.442140  	97.568670 
2564.879047  	97.588548 
2566.315954  	97.646477 
2567.752861  	97.640518 
2569.189768  	97.633139 
2570.626675  	97.667372 
2572.063582  	97.675803 
2573.500489  	97.642757 
2574.937396  	97.661270 
2576.374303  	97.709273 
2577.811210  	97.700931 
2579.248117  	97.670989 
2580.685024  	97.637896 
2582.121931  	97.625268 
2583.558838  	97.656046 
2584.995745  	97.656958 
2586.432652  	97.647779 
2587.869559  	97.655836 
2589.306466  	97.640243 
2590.743373  	97.665780 
2592.180280  	97.705428 
2593.617187  	97.696647 
2595.054094  	97.710626 
2596.491001  	97.705523 
2597.927908  	97.668693 
2599.364815  	97.674248 
2600.801722  	97.673228 
2602.238629  	97.695974 
2603.675536  	97.741786 
2605.112443  	97.703632 
2606.549350  	97.699000 
2607.986257  	97.774702 
2609.423164  	97.765880 
2610.860071  	97.711936 
2612.296979  	97.710162 
2613.733886  	97.702914 
2615.170793  	97.679500 
2616.607700  	97.693744 
2618.044607  	97.714897 
2619.481514  	97.680529 
2620.918421  	97.653544 
2622.355328  	97.684362 
2623.792235  	97.694683 
2625.229142  	97.687110 
2626.666049  	97.701083 
2628.102956  	97.697699 
2629.539863  	97.684147 
2630.976770  	97.670132 
2632.413677  	97.662035 
2633.850584  	97.683982 
2635.287491  	97.683822 
2636.724398  	97.661640 
2638.161305  	97.667652 
2639.598212  	97.660714 
2641.035119  	97.637010 
2642.472026  	97.631002 
2643.908933  	97.622288 
2645.345840  	97.608921 
2646.782747  	97.606183 
2648.219654  	97.610191 
2649.656561  	97.595891 
2651.093468  	97.560859 
2652.530375  	97.550374 
2653.967282  	97.553015 
2655.404189  	97.544010 
2656.841096  	97.553953 
2658.278003  	97.571750 
2659.714910  	97.586316 
2661.151817  	97.601377 
2662.588725  	97.589370 
2664.025632  	97.576187 
2665.462539  	97.578873 
2666.899446  	97.568827 
2668.336353  	97.565947 
2669.773260  	97.574973 
2671.210167  	97.580029 
2672.647074  	97.577505 
2674.083981  	97.549741 
2675.520888  	97.533723 
2676.957795  	97.551053 
2678.394702  	97.551848 
2679.831609  	97.534248 
2681.268516  	97.517928 
2682.705423  	97.514370 
2684.142330  	97.527893 
2685.579237  	97.522103 
2687.016144  	97.510888 
2688.453051  	97.515088 
2689.889958  	97.504603 
2691.326865  	97.501389 
2692.763772  	97.508941 
2694.200679  	97.501009 
2695.637586  	97.496015 
2697.074493  	97.479051 
2698.511400  	97.464274 
2699.948307  	97.489141 
2701.385214  	97.496059 
2702.822121  	97.469858 
2704.259028  	97.462120 
2705.695935  	97.472801 
2707.132842  	97.481815 
2708.569749  	97.461814 
2710.006656  	97.425399 
2711.443564  	97.423512 
2712.880471  	97.434790 
2714.317378  	97.423843 
2715.754285  	97.400517 
2717.191192  	97.379705 
2718.628099  	97.375380 
2720.065006  	97.368450 
2721.501913  	97.346720 
2722.938820  	97.342043 
2724.375727  	97.357349 
2725.812634  	97.366251 
2727.249541  	97.353138 
2728.686448  	97.335821 
2730.123355  	97.335170 
2731.560262  	97.315553 
2732.997169  	97.282828 
2734.434076  	97.287227 
2735.870983  	97.291880 
2737.307890  	97.262595 
2738.744797  	97.232656 
2740.181704  	97.219229 
2741.618611  	97.221290 
2743.055518  	97.225629 
2744.492425  	97.221452 
2745.929332  	97.206967 
2747.366239  	97.173690 
2748.803146  	97.153418 
2750.240053  	97.162822 
2751.676960  	97.151669 
2753.113867  	97.115081 
2754.550774  	97.105582 
2755.987681  	97.132633 
2757.424588  	97.139458 
2758.861495  	97.099247 
2760.298402  	97.071164 
2761.735310  	97.067710 
2763.172217  	97.048630 
2764.609124  	97.031004 
2766.046031  	97.019250 
2767.482938  	97.004514 
2768.919845  	96.997194 
2770.356752  	96.969937 
2771.793659  	96.931611 
2773.230566  	96.918894 
2774.667473  	96.913984 
2776.104380  	96.900957 
2777.541287  	96.868748 
2778.978194  	96.828511 
2780.415101  	96.818946 
2781.852008  	96.820293 
2783.288915  	96.815502 
2784.725822  	96.816484 
2786.162729  	96.808633 
2787.599636  	96.796295 
2789.036543  	96.776271 
2790.473450  	96.745214 
2791.910357  	96.724695 
2793.347264  	96.697240 
2794.784171  	96.671929 
2796.221078  	96.656738 
2797.657985  	96.611721 
2799.094892  	96.588122 
2800.531799  	96.607640 
2801.968706  	96.591088 
2803.405613  	96.557462 
2804.842520  	96.537996 
2806.279427  	96.512511 
2807.716334  	96.494554 
2809.153241  	96.460401 
2810.590148  	96.411685 
2812.027056  	96.389799 
2813.463963  	96.366547 
2814.900870  	96.338971 
2816.337777  	96.320916 
2817.774684  	96.286527 
2819.211591  	96.259399 
2820.648498  	96.254009 
2822.085405  	96.242654 
2823.522312  	96.220583 
2824.959219  	96.186423 
2826.396126  	96.149927 
2827.833033  	96.113246 
2829.269940  	96.072352 
2830.706847  	96.052418 
2832.143754  	96.037320 
2833.580661  	96.003431 
2835.017568  	95.968503 
2836.454475  	95.926027 
2837.891382  	95.893082 
2839.328289  	95.881294 
2840.765196  	95.836338 
2842.202103  	95.765439 
2843.639010  	95.712596 
2845.075917  	95.670144 
2846.512824  	95.635177 
2847.949731  	95.599059 
2849.386638  	95.556867 
2850.823545  	95.517042 
2852.260452  	95.461985 
2853.697359  	95.421552 
2855.134266  	95.418062 
2856.571173  	95.385055 
2858.008080  	95.334870 
2859.444987  	95.327155 
2860.881895  	95.309576 
2862.318802  	95.254750 
2863.755709  	95.213070 
2865.192616  	95.182939 
2866.629523  	95.141946 
2868.066430  	95.091341 
2869.503337  	95.032613 
2870.940244  	94.990094 
2872.377151  	94.958081 
2873.814058  	94.891360 
2875.250965  	94.827412 
2876.687872  	94.811606 
2878.124779  	94.784161 
2879.561686  	94.721500 
2880.998593  	94.659601 
2882.435500  	94.597621 
2883.872407  	94.556243 
2885.309314  	94.536467 
2886.746221  	94.487723 
2888.183128  	94.431214 
2889.620035  	94.380902 
2891.056942  	94.294804 
2892.493849  	94.210570 
2893.930756  	94.157879 
2895.367663  	94.102539 
2896.804570  	94.062606 
2898.241477  	94.029298 
2899.678384  	93.957017 
2901.115291  	93.887486 
2902.552198  	93.844826 
2903.989105  	93.781658 
2905.426012  	93.703748 
2906.862919  	93.638470 
2908.299826  	93.568486 
2909.736733  	93.490433 
2911.173641  	93.416076 
2912.610548  	93.330543 
2914.047455  	93.229380 
2915.484362  	93.136499 
2916.921269  	93.061320 
2918.358176  	92.998250 
2919.795083  	92.933180 
2921.231990  	92.840779 
2922.668897  	92.742686 
2924.105804  	92.680021 
2925.542711  	92.628611 
2926.979618  	92.565484 
2928.416525  	92.498728 
2929.853432  	92.415816 
2931.290339  	92.328167 
2932.727246  	92.256868 
2934.164153  	92.189163 
2935.601060  	92.123254 
2937.037967  	92.057281 
2938.474874  	91.983974 
2939.911781  	91.908888 
2941.348688  	91.827642 
2942.785595  	91.748090 
2944.222502  	91.669666 
2945.659409  	91.569417 
2947.096316  	91.469969 
2948.533223  	91.392433 
2949.970130  	91.316625 
2951.407037  	91.233156 
2952.843944  	91.125218 
2954.280851  	91.002003 
2955.717758  	90.911549 
2957.154665  	90.843483 
2958.591572  	90.755417 
2960.028479  	90.645454 
2961.465387  	90.541866 
2962.902294  	90.452012 
2964.339201  	90.339611 
2965.776108  	90.219749 
2967.213015  	90.130814 
2968.649922  	90.027933 
2970.086829  	89.905289 
2971.523736  	89.803724 
2972.960643  	89.690698 
2974.397550  	89.552836 
2975.834457  	89.428233 
2977.271364  	89.324293 
2978.708271  	89.220819 
2980.145178  	89.101120 
2981.582085  	88.982334 
2983.018992  	88.870176 
2984.455899  	88.741235 
2985.892806  	88.603034 
2987.329713  	88.466149 
2988.766620  	88.340228 
2990.203527  	88.216539 
2991.640434  	88.058389 
2993.077341  	87.909352 
2994.514248  	87.791509 
2995.951155  	87.646377 
2997.388062  	87.500653 
2998.824969  	87.356883 
3000.261876  	87.174476 
3001.698783  	87.021183 
3003.135690  	86.912004 
3004.572597  	86.780417 
3006.009504  	86.610258 
3007.446411  	86.424581 
3008.883318  	86.272838 
3010.320226  	86.136383 
3011.757133  	85.972449 
3013.194040  	85.813621 
3014.630947  	85.638139 
3016.067854  	85.450849 
3017.504761  	85.298177 
3018.941668  	85.120884 
3020.378575  	84.928353 
3021.815482  	84.762141 
3023.252389  	84.577470 
3024.689296  	84.392235 
3026.126203  	84.200255 
3027.563110  	83.986053 
3029.000017  	83.810918 
3030.436924  	83.651489 
3031.873831  	83.476416 
3033.310738  	83.286518 
3034.747645  	83.068608 
3036.184552  	82.868243 
3037.621459  	82.667665 
3039.058366  	82.451201 
3040.495273  	82.262986 
3041.932180  	82.054964 
3043.369087  	81.851276 
3044.805994  	81.672535 
3046.242901  	81.436774 
3047.679808  	81.209322 
3049.116715  	81.002801 
3050.553622  	80.759706 
3051.990529  	80.546554 
3053.427436  	80.326366 
3054.864343  	80.093785 
3056.301250  	79.889700 
3057.738157  	79.627984 
3059.175064  	79.375651 
3060.611972  	79.159117 
3062.048879  	78.877088 
3063.485786  	78.621461 
3064.922693  	78.413161 
3066.359600  	78.192262 
3067.796507  	77.965925 
3069.233414  	77.698441 
3070.670321  	77.466815 
3072.107228  	77.245062 
3073.544135  	76.939187 
3074.981042  	76.691246 
3076.417949  	76.448130 
3077.854856  	76.134740 
3079.291763  	75.907284 
3080.728670  	75.668720 
3082.165577  	75.362515 
3083.602484  	75.090890 
3085.039391  	74.807565 
3086.476298  	74.559356 
3087.913205  	74.318639 
3089.350112  	74.017954 
3090.787019  	73.762959 
3092.223926  	73.490610 
3093.660833  	73.186294 
3095.097740  	72.923076 
3096.534647  	72.607258 
3097.971554  	72.303255 
3099.408461  	72.042802 
3100.845368  	71.746883 
3102.282275  	71.469262 
3103.719182  	71.157473 
3105.156089  	70.840748 
3106.592996  	70.570968 
3108.029903  	70.230782 
3109.466811  	69.924849 
3110.903718  	69.660122 
3112.340625  	69.325713 
3113.777532  	69.047126 
3115.214439  	68.754590 
3116.651346  	68.427259 
3118.088253  	68.172245 
3119.525160  	67.840610 
3120.962067  	67.501503 
3122.398974  	67.227169 
3123.835881  	66.909569 
3125.272788  	66.650668 
3126.709695  	66.360762 
3128.146602  	66.007972 
3129.583509  	65.759605 
3131.020416  	65.464869 
3132.457323  	65.137630 
3133.894230  	64.854767 
3135.331137  	64.502412 
3136.768044  	64.219094 
3138.204951  	63.953306 
3139.641858  	63.602362 
3141.078765  	63.315613 
3142.515672  	63.002298 
3143.952579  	62.693862 
3145.389486  	62.436957 
3146.826393  	62.067869 
3148.263300  	61.760824 
3149.700207  	61.528492 
3151.137114  	61.227037 
3152.574021  	60.973152 
3154.010928  	60.657866 
3155.447835  	60.292579 
3156.884742  	60.014823 
3158.321649  	59.722696 
3159.758557  	59.479312 
3161.195464  	59.213576 
3162.632371  	58.882365 
3164.069278  	58.678032 
3165.506185  	58.415450 
3166.943092  	58.103913 
3168.379999  	57.898618 
3169.816906  	57.598456 
3171.253813  	57.323296 
3172.690720  	57.107445 
3174.127627  	56.801065 
3175.564534  	56.569240 
3177.001441  	56.306376 
3178.438348  	56.004173 
3179.875255  	55.819623 
3181.312162  	55.566728 
3182.749069  	55.347557 
3184.185976  	55.180217 
3185.622883  	54.909336 
3187.059790  	54.729734 
3188.496697  	54.523183 
3189.933604  	54.246469 
3191.370511  	54.077501 
3192.807418  	53.831865 
3194.244325  	53.623353 
3195.681232  	53.488378 
3197.118139  	53.220446 
3198.555046  	53.045837 
3199.991953  	52.899884 
3201.428860  	52.689444 
3202.865767  	52.566268 
3204.302674  	52.338017 
3205.739581  	52.139307 
3207.176488  	52.049895 
3208.613395  	51.841547 
3210.050303  	51.732859 
3211.487210  	51.626073 
3212.924117  	51.402933 
3214.361024  	51.318225 
3215.797931  	51.156523 
3217.234838  	50.969481 
3218.671745  	50.915054 
3220.108652  	50.752914 
3221.545559  	50.658489 
3222.982466  	50.602147 
3224.419373  	50.439342 
3225.856280  	50.384493 
3227.293187  	50.255148 
3228.730094  	50.098724 
3230.167001  	50.069623 
3231.603908  	49.908680 
3233.040815  	49.808785 
3234.477722  	49.801532 
3235.914629  	49.713185 
3237.351536  	49.710801 
3238.788443  	49.603668 
3240.225350  	49.470955 
3241.662257  	49.514220 
3243.099164  	49.436304 
3244.536071  	49.402375 
3245.972978  	49.418696 
3247.409885  	49.257326 
3248.846792  	49.234297 
3250.283699  	49.225736 
3251.720606  	49.134122 
3253.157513  	49.182392 
3254.594420  	49.133318 
3256.031327  	49.066366 
3257.468234  	49.079461 
3258.905142  	49.002046 
3260.342049  	49.032578 
3261.778956  	49.042649 
3263.215863  	48.963005 
3264.652770  	49.009342 
3266.089677  	48.966047 
3267.526584  	48.912829 
3268.963491  	48.940277 
3270.400398  	48.871309 
3271.837305  	48.909313 
3273.274212  	48.951656 
3274.711119  	48.894377 
3276.148026  	48.921210 
3277.584933  	48.853068 
3279.021840  	48.818354 
3280.458747  	48.896991 
3281.895654  	48.849540 
3283.332561  	48.865999 
3284.769468  	48.890848 
3286.206375  	48.852307 
3287.643282  	48.918497 
3289.080189  	48.853484 
3290.517096  	48.782899 
3291.954003  	48.843526 
3293.390910  	48.804330 
3294.827817  	48.856791 
3296.264724  	48.889600 
3297.701631  	48.793589 
3299.138538  	48.853330 
3300.575445  	48.846611 
3302.012352  	48.795977 
3303.449259  	48.840957 
3304.886166  	48.770601 
3306.323073  	48.809668 
3307.759980  	48.862860 
3309.196888  	48.750810 
3310.633795  	48.805084 
3312.070702  	48.836519 
3313.507609  	48.795276 
3314.944516  	48.839821 
3316.381423  	48.770100 
3317.818330  	48.800390 
3319.255237  	48.860251 
3320.692144  	48.755856 
3322.129051  	48.825008 
3323.565958  	48.835109 
3325.002865  	48.730464 
3326.439772  	48.825649 
3327.876679  	48.822225 
3329.313586  	48.792652 
3330.750493  	48.868699 
3332.187400  	48.854087 
3333.624307  	48.915031 
3335.061214  	48.935519 
3336.498121  	48.887718 
3337.935028  	48.939979 
3339.371935  	48.853842 
3340.808842  	48.837055 
3342.245749  	48.962402 
3343.682656  	48.944363 
3345.119563  	49.019997 
3346.556470  	49.092358 
3347.993377  	49.055432 
3349.430284  	49.130172 
3350.867191  	49.104321 
3352.304098  	49.115952 
3353.741005  	49.278925 
3355.177912  	49.294683 
3356.614819  	49.332307 
3358.051726  	49.357416 
3359.488634  	49.312732 
3360.925541  	49.418593 
3362.362448  	49.467911 
3363.799355  	49.536018 
3365.236262  	49.687455 
3366.673169  	49.694826 
3368.110076  	49.786738 
3369.546983  	49.860437 
3370.983890  	49.848348 
3372.420797  	50.030023 
3373.857704  	50.134936 
3375.294611  	50.203905 
3376.731518  	50.342825 
3378.168425  	50.312010 
3379.605332  	50.428692 
3381.042239  	50.631054 
3382.479146  	50.701611 
3383.916053  	50.907473 
3385.352960  	50.994135 
3386.789867  	51.008263 
3388.226774  	51.204975 
3389.663681  	51.253021 
3391.100588  	51.327058 
3392.537495  	51.527467 
3393.974402  	51.641459 
3395.411309  	51.846660 
3396.848216  	51.989799 
3398.285123  	52.067951 
3399.722030  	52.243480 
3401.158937  	52.304520 
3402.595844  	52.451624 
3404.032751  	52.683759 
3405.469658  	52.817232 
3406.906565  	53.071580 
3408.343473  	53.217447 
3409.780380  	53.305302 
3411.217287  	53.609382 
3412.654194  	53.756547 
3414.091101  	53.862000 
3415.528008  	54.104981 
3416.964915  	54.273489 
3418.401822  	54.514037 
3419.838729  	54.706918 
3421.275636  	54.827272 
3422.712543  	55.076003 
3424.149450  	55.230511 
3425.586357  	55.436595 
3427.023264  	55.699991 
3428.460171  	55.788150 
3429.897078  	55.998850 
3431.333985  	56.237166 
3432.770892  	56.384849 
3434.207799  	56.625486 
3435.644706  	56.764038 
3437.081613  	56.987524 
3438.518520  	57.342665 
3439.955427  	57.512727 
3441.392334  	57.754455 
3442.829241  	57.994577 
3444.266148  	58.114116 
3445.703055  	58.386489 
3447.139962  	58.573947 
3448.576869  	58.748784 
3450.013776  	59.064722 
3451.450683  	59.245738 
3452.887590  	59.499772 
3454.324497  	59.763989 
3455.761404  	59.870372 
3457.198311  	60.097193 
3458.635219  	60.281406 
3460.072126  	60.470191 
3461.509033  	60.852249 
3462.945940  	61.085123 
3464.382847  	61.240769 
3465.819754  	61.448083 
3467.256661  	61.634627 
3468.693568  	61.905704 
3470.130475  	62.077851 
3471.567382  	62.239355 
3473.004289  	62.538810 
3474.441196  	62.738292 
3475.878103  	63.007440 
3477.315010  	63.293942 
3478.751917  	63.393122 
3480.188824  	63.622413 
3481.625731  	63.908774 
3483.062638  	64.121204 
3484.499545  	64.373811 
3485.936452  	64.524048 
3487.373359  	64.737504 
3488.810266  	65.037829 
3490.247173  	65.205866 
3491.684080  	65.426328 
3493.120987  	65.646389 
3494.557894  	65.836861 
3495.994801  	66.139163 
3497.431708  	66.351078 
3498.868615  	66.542779 
3500.305522  	66.816842 
3501.742429  	67.026112 
3503.179336  	67.250699 
3504.616243  	67.486288 
3506.053150  	67.750509 
3507.490058  	68.025912 
3508.926965  	68.149913 
3510.363872  	68.333524 
3511.800779  	68.587849 
3513.237686  	68.753648 
3514.674593  	69.045910 
3516.111500  	69.324052 
3517.548407  	69.515120 
3518.985314  	69.793847 
3520.422221  	69.982423 
3521.859128  	70.148313 
3523.296035  	70.399244 
3524.732942  	70.636577 
3526.169849  	70.965171 
3527.606756  	71.230309 
3529.043663  	71.387736 
3530.480570  	71.618026 
3531.917477  	71.789530 
3533.354384  	71.994907 
3534.791291  	72.222806 
3536.228198  	72.363128 
3537.665105  	72.709997 
3539.102012  	73.068001 
3540.538919  	73.182392 
3541.975826  	73.291673 
3543.412733  	73.404980 
3544.849640  	73.606059 
3546.286547  	73.968102 
3547.723454  	74.274747 
3549.160361  	74.618202 
3550.597268  	74.847842 
3552.034175  	74.898371 
3553.471082  	75.073397 
3554.907989  	75.275570 
3556.344896  	75.514114 
3557.781804  	75.877145 
3559.218711  	76.133080 
3560.655618  	76.331694 
3562.092525  	76.463503 
3563.529432  	76.510897 
3564.966339  	76.698145 
3566.403246  	76.954235 
3567.840153  	77.378927 
3569.277060  	77.816546 
3570.713967  	77.931706 
3572.150874  	78.048070 
3573.587781  	78.193218 
3575.024688  	78.257603 
3576.461595  	78.497728 
3577.898502  	78.853471 
3579.335409  	79.195745 
3580.772316  	79.481831 
3582.209223  	79.546674 
3583.646130  	79.600319 
3585.083037  	79.683944 
3586.519944  	79.705557 
3587.956851  	80.016473 
3589.393758  	80.470125 
3590.830665  	80.827535 
3592.267572  	81.123543 
3593.704479  	81.083429 
3595.141386  	80.947898 
3596.578293  	81.112169 
3598.015200  	81.470604 
3599.452107  	82.037189 
3600.889014  	82.497979 
3602.325921  	82.569662 
3603.762828  	82.563697 
3605.199735  	82.559363 
3606.636642  	82.603815 
3608.073550  	82.816380 
3609.510457  	83.187965 
3610.947364  	83.641226 
3612.384271  	83.844266 
3613.821178  	83.701169 
3615.258085  	83.592732 
3616.694992  	83.687848 
3618.131899  	84.023975 
3619.568806  	84.569958 
3621.005713  	84.933674 
3622.442620  	85.218004 
3623.879527  	85.276825 
3625.316434  	85.173657 
3626.753341  	85.378198 
3628.190248  	85.748824 
3629.627155  	86.318685 
3631.064062  	86.679769 
3632.500969  	86.775057 
3633.937876  	86.825629 
3635.374783  	86.901895 
3636.811690  	87.007033 
3638.248597  	87.245207 
3639.685504  	87.606645 
3641.122411  	87.947301 
3642.559318  	88.193740 
3643.996225  	88.294956 
3645.433132  	88.328437 
3646.870039  	88.275829 
3648.306946  	88.476717 
3649.743853  	89.187120 
3651.180760  	89.622246 
3652.617667  	89.880474 
3654.054574  	90.281875 
3655.491481  	90.395766 
3656.928389  	90.289206 
3658.365296  	90.468760 
3659.802203  	90.954609 
3661.239110  	91.538817 
3662.676017  	91.890993 
3664.112924  	91.932832 
3665.549831  	91.901158 
3666.986738  	91.962569 
3668.423645  	92.198671 
3669.860552  	92.364349 
3671.297459  	92.528132 
3672.734366  	93.248341 
3674.171273  	93.751483 
3675.608180  	93.497851 
3677.045087  	92.840399 
3678.481994  	93.325701 
3679.918901  	94.062607 
3681.355808  	94.716045 
3682.792715  	94.659539 
3684.229622  	94.756975 
3685.666529  	94.823273 
3687.103436  	94.891893 
3688.540343  	94.943177 
3689.977250  	95.052460 
3691.414157  	95.271593 
3692.851064  	95.500819 
3694.287971  	95.636835 
3695.724878  	95.697041 
3697.161785  	95.702397 
3698.598692  	95.822256 
3700.035599  	96.038476 
3701.472506  	96.120514 
3702.909413  	96.244658 
3704.346320  	96.457993 
3705.783227  	96.602996 
3707.220135  	96.616252 
3708.657042  	96.450428 
3710.093949  	96.311046 
3711.530856  	96.391005 
3712.967763  	96.523535 
3714.404670  	96.786583 
3715.841577  	97.019893 
3717.278484  	96.973336 
3718.715391  	96.801721 
3720.152298  	96.712518 
3721.589205  	96.715264 
3723.026112  	96.942141 
3724.463019  	97.287958 
3725.899926  	97.279423 
3727.336833  	96.923416 
3728.773740  	96.868854 
3730.210647  	97.071646 
3731.647554  	97.074763 
3733.084461  	97.040454 
3734.521368  	97.136427 
3735.958275  	97.184444 
3737.395182  	97.190600 
3738.832089  	97.141428 
3740.268996  	97.012198 
3741.705903  	97.153498 
3743.142810  	97.440584 
3744.579717  	97.505100 
3746.016624  	97.254411 
3747.453531  	97.407743 
3748.890438  	97.724681 
3750.327345  	97.974222 
3751.764252  	97.713912 
3753.201159  	97.367897 
3754.638066  	97.456445 
3756.074973  	97.658959 
3757.511881  	97.720925 
3758.948788  	97.803433 
3760.385695  	97.834010 
3761.822602  	97.712389 
3763.259509  	97.729180 
3764.696416  	97.676731 
3766.133323  	97.484150 
3767.570230  	97.668807 
3769.007137  	97.924138 
3770.444044  	97.787573 
3771.880951  	97.622027 
3773.317858  	97.721923 
3774.754765  	97.785333 
3776.191672  	97.849841 
3777.628579  	97.891839 
3779.065486  	97.829780 
3780.502393  	97.724123 
3781.939300  	97.780631 
3783.376207  	97.900180 
3784.813114  	97.853272 
3786.250021  	97.768346 
3787.686928  	97.808238 
3789.123835  	97.828875 
3790.560742  	97.802994 
3791.997649  	97.794208 
3793.434556  	97.849799 
3794.871463  	97.941839 
3796.308370  	97.793478 
3797.745277  	97.461930 
3799.182184  	97.568193 
3800.619091  	97.841957 
3802.055998  	97.888327 
3803.492905  	97.711195 
3804.929812  	97.789615 
3806.366720  	97.865093 
3807.803627  	97.778106 
3809.240534  	97.719794 
3810.677441  	97.810954 
3812.114348  	97.875155 
3813.551255  	97.979236 
3814.988162  	98.024383 
3816.425069  	97.775740 
3817.861976  	97.686564 
3819.298883  	97.956284 
3820.735790  	97.961149 
3822.172697  	97.608435 
3823.609604  	97.703495 
3825.046511  	98.010253 
3826.483418  	98.028964 
3827.920325  	97.761268 
3829.357232  	97.688121 
3830.794139  	97.832236 
3832.231046  	97.951090 
3833.667953  	98.007865 
3835.104860  	97.992433 
3836.541767  	97.935391 
3837.978674  	97.849703 
3839.415581  	97.682464 
3840.852488  	97.651363 
3842.289395  	97.832530 
3843.726302  	97.960688 
3845.163209  	97.970131 
3846.600116  	97.952414 
3848.037023  	97.900777 
3849.473930  	97.845532 
3850.910837  	97.875638 
3852.347744  	97.960680 
3853.784651  	98.153801 
3855.221558  	98.032210 
3856.658466  	97.927719 
3858.095373  	97.885182 
3859.532280  	97.885304 
3860.969187  	97.896370 
3862.406094  	97.906801 
3863.843001  	97.979633 
3865.279908  	97.971353 
3866.716815  	97.920391 
3868.153722  	98.017598 
3869.590629  	97.952835 
3871.027536  	97.720542 
3872.464443  	97.900449 
3873.901350  	98.047608 
3875.338257  	97.970062 
3876.775164  	98.048586 
3878.212071  	98.196255 
3879.648978  	98.207256 
3881.085885  	97.941131 
3882.522792  	97.764676 
3883.959699  	97.991841 
3885.396606  	98.184120 
3886.833513  	98.072650 
3888.270420  	98.047362 
3889.707327  	98.112327 
3891.144234  	98.031821 
3892.581141  	97.909502 
3894.018048  	97.913765 
3895.454955  	98.080399 
3896.891862  	98.243239 
3898.328769  	98.181013 
3899.765676  	97.930955 
3901.202583  	97.818630 
3902.639490  	97.989562 
3904.076397  	98.156833 
3905.513305  	98.113630 
3906.950212  	98.080235 
3908.387119  	98.150687 
3909.824026  	98.186388 
3911.260933  	98.154046 
3912.697840  	98.123026 
3914.134747  	98.169965 
3915.571654  	98.232202 
3917.008561  	98.167588 
3918.445468  	98.072914 
3919.882375  	98.018736 
3921.319282  	98.002583 
3922.756189  	98.141048 
3924.193096  	98.208233 
3925.630003  	98.125138 
3927.066910  	98.148362 
3928.503817  	98.218231 
3929.940724  	98.208872 
3931.377631  	98.161415 
3932.814538  	98.084542 
3934.251445  	98.120133 
3935.688352  	98.246336 
3937.125259  	98.255309 
3938.562166  	98.150682 
3939.999073  	98.143980 
3941.435980  	98.203332 
3942.872887  	98.172055 
3944.309794  	98.034538 
3945.746701  	98.054576 
3947.183608  	98.168460 
3948.620515  	98.164725 
3950.057422  	98.131120 
3951.494329  	98.146201 
3952.931236  	98.174065 
3954.368143  	98.238102 
3955.805051  	98.276103 
3957.241958  	98.264585 
3958.678865  	98.241648 
3960.115772  	98.220595 
3961.552679  	98.233893 
3962.989586  	98.231021 
3964.426493  	98.245226 
3965.863400  	98.314116 
3967.300307  	98.306814 
3968.737214  	98.228122 
3970.174121  	98.185896 
3971.611028  	98.184524 
3973.047935  	98.240605 
3974.484842  	98.315131 
3975.921749  	98.349305 
3977.358656  	98.337700 
3978.795563  	98.271892 
3980.232470  	98.249100 
3981.669377  	98.293618 
3983.106284  	98.297492 
3984.543191  	98.293688 
3985.980098  	98.296756 
3987.417005  	98.266810 
3988.853912  	98.248740 
3990.290819  	98.224592 
3991.727726  	98.214690 
3993.164633  	98.257506 
3994.601540  	98.272550 
3996.038447  	98.265369 
3997.475354  	98.269756 
3998.912261  	98.276131 
4000.349168  	98.306457 